File Dati SpectraSuite
++++++++++++++++++++++++++++++++++++
Data: Mon Feb 25 14:40:39 CET 2019
Utente: Studente
Spettro Scuro Presente: Si
Spettro di Riferimento Presente: No
Numero di Componenti Spettri Campionati: 1
Spettrometri: USB4F01341
Tempo di integrazione (usec): 1000 (USB4F01341)
Media Spettri: 100 (USB4F01341)
Appiattimento Boxcar: 0 (USB4F01341)
Correggi Oscurità Elettronica: Si (USB4F01341)
Strobo/Lampada Abilitato: No (USB4F01341)
Correct for Detector Non-linearity: No (USB4F01341)
Correggi Stray Light: No (USB4F01341)
Numero di Pixel nello Spettro Elaborato: 3648
>>>>>Comincia Dati dello Spettro Elaborati<<<<<
0,00	1,08
1,00	1,08
2,00	1,08
3,00	0,24
4,00	1,04
5,00	-0,21
6,00	2,91
7,00	-4,49
8,00	5,75
9,00	-5,12
10,00	2,31
11,00	1,94
12,00	7,29
13,00	-3,48
14,00	5,34
15,00	-1,13
16,00	9,58
17,00	-5,08
18,00	5,12
19,00	0,65
20,00	9,54
21,00	-0,60
22,00	2,97
23,00	3,70
24,00	5,18
25,00	-3,93
26,00	3,54
27,00	6,35
28,00	8,76
29,00	2,09
30,00	7,14
31,00	-5,43
32,00	2,76
33,00	-1,42
34,00	8,52
35,00	-4,53
36,00	2,21
37,00	6,63
38,00	2,05
39,00	5,10
40,00	6,74
41,00	-0,60
42,00	5,44
43,00	-2,36
44,00	4,79
45,00	0,92
46,00	-0,27
47,00	2,95
48,00	1,12
49,00	-0,23
50,00	1,90
51,00	2,29
52,00	3,01
53,00	-5,82
54,00	2,91
55,00	-2,75
56,00	3,64
57,00	0,28
58,00	4,61
59,00	1,29
60,00	9,34
61,00	-1,03
62,00	6,67
63,00	4,32
64,00	10,54
65,00	-0,49
66,00	5,90
67,00	-1,64
68,00	7,98
69,00	3,70
70,00	8,41
71,00	6,92
72,00	3,87
73,00	-0,02
74,00	7,06
75,00	-1,70
76,00	2,76
77,00	-4,57
78,00	3,40
79,00	-0,70
80,00	4,22
81,00	-1,13
82,00	8,33
83,00	-0,04
84,00	12,16
85,00	6,18
86,00	5,49
87,00	8,15
88,00	9,09
89,00	4,46
90,00	12,14
91,00	8,99
92,00	4,50
93,00	0,82
94,00	5,90
95,00	-1,72
96,00	5,90
97,00	5,87
98,00	10,42
99,00	9,32
100,00	21,87
101,00	34,71
102,00	61,11
103,00	109,81
104,00	132,52
105,00	230,84
106,00	259,25
107,00	396,83
108,00	393,84
109,00	549,43
110,00	566,08
111,00	725,29
112,00	670,44
113,00	879,44
114,00	832,91
115,00	1002,68
116,00	909,91
117,00	1163,26
118,00	1122,41
119,00	1291,86
120,00	1168,65
121,00	1424,18
122,00	1255,85
123,00	1477,63
124,00	1227,65
125,00	1286,47
126,00	985,95
127,00	1027,14
128,00	689,79
129,00	530,42
130,00	267,83
131,00	149,23
132,00	55,48
133,00	23,18
134,00	17,86
135,00	6,61
136,00	9,09
137,00	7,51
138,00	13,17
139,00	2,64
140,00	17,57
141,00	-0,68
142,00	7,39
143,00	9,89
144,00	11,73
145,00	1,74
146,00	4,97
147,00	-3,14
148,00	9,23
149,00	-0,90
150,00	4,20
151,00	7,14
152,00	20,17
153,00	1,72
154,00	9,07
155,00	-1,15
156,00	5,57
157,00	2,05
158,00	11,49
159,00	2,02
160,00	5,67
161,00	1,45
162,00	4,56
163,00	3,15
164,00	14,87
165,00	1,59
166,00	6,69
167,00	2,97
168,00	8,07
169,00	5,28
170,00	14,66
171,00	6,16
172,00	5,55
173,00	3,38
174,00	8,13
175,00	-1,37
176,00	5,34
177,00	10,05
178,00	11,63
179,00	2,13
180,00	14,72
181,00	5,16
182,00	7,08
183,00	-2,05
184,00	12,98
185,00	0,24
186,00	7,21
187,00	3,62
188,00	5,16
189,00	6,20
190,00	9,77
191,00	4,34
192,00	2,07
193,00	9,05
194,00	6,94
195,00	3,27
196,00	5,01
197,00	1,49
198,00	10,11
199,00	0,96
200,00	13,64
201,00	-0,06
202,00	6,88
203,00	-1,83
204,00	5,04
205,00	-0,54
206,00	6,92
207,00	3,09
208,00	9,81
209,00	1,19
210,00	10,83
211,00	3,46
212,00	9,52
213,00	3,15
214,00	14,72
215,00	1,82
216,00	8,05
217,00	0,80
218,00	12,59
219,00	6,18
220,00	10,07
221,00	4,93
222,00	11,30
223,00	-2,09
224,00	11,49
225,00	4,42
226,00	12,16
227,00	0,84
228,00	9,44
229,00	4,75
230,00	11,75
231,00	2,23
232,00	13,92
233,00	0,59
234,00	6,10
235,00	6,14
236,00	8,56
237,00	4,09
238,00	9,21
239,00	7,80
240,00	9,46
241,00	0,24
242,00	10,56
243,00	0,67
244,00	5,18
245,00	0,59
246,00	10,83
247,00	9,38
248,00	14,05
249,00	-1,64
250,00	12,14
251,00	3,95
252,00	10,40
253,00	-3,40
254,00	9,89
255,00	9,66
256,00	5,36
257,00	4,87
258,00	9,48
259,00	1,41
260,00	12,26
261,00	1,23
262,00	13,90
263,00	5,36
264,00	6,71
265,00	6,33
266,00	19,10
267,00	-0,06
268,00	6,16
269,00	-1,31
270,00	6,31
271,00	0,71
272,00	12,08
273,00	8,11
274,00	13,35
275,00	4,36
276,00	15,52
277,00	8,48
278,00	11,45
279,00	7,90
280,00	14,91
281,00	27,62
282,00	41,94
283,00	95,66
284,00	139,87
285,00	280,71
286,00	351,76
287,00	557,70
288,00	616,37
289,00	1118,74
290,00	994,90
291,00	1102,69
292,00	1150,03
293,00	1327,90
294,00	1458,64
295,00	1698,54
296,00	1489,85
297,00	1869,55
298,00	1655,78
299,00	2095,07
300,00	1962,34
301,00	2461,45
302,00	2289,59
303,00	2513,74
304,00	2603,60
305,00	2832,30
306,00	2445,37
307,00	2554,16
308,00	2098,92
309,00	2203,02
310,00	1824,16
311,00	1481,52
312,00	959,82
313,00	683,12
314,00	243,64
315,00	101,58
316,00	43,78
317,00	14,85
318,00	24,25
319,00	14,09
320,00	19,17
321,00	10,79
322,00	22,28
323,00	11,24
324,00	17,55
325,00	11,02
326,00	9,01
327,00	4,40
328,00	11,94
329,00	2,23
330,00	13,82
331,00	9,46
332,00	5,59
333,00	5,32
334,00	4,07
335,00	4,61
336,00	5,75
337,00	0,41
338,00	10,81
339,00	3,56
340,00	15,28
341,00	8,13
342,00	3,70
343,00	8,23
344,00	6,18
345,00	5,08
346,00	7,98
347,00	-0,84
348,00	9,07
349,00	0,96
350,00	13,88
351,00	8,68
352,00	3,58
353,00	2,35
354,00	4,77
355,00	0,55
356,00	9,13
357,00	4,95
358,00	11,69
359,00	2,50
360,00	7,25
361,00	5,49
362,00	11,28
363,00	4,99
364,00	13,82
365,00	-0,51
366,00	6,20
367,00	7,23
368,00	7,47
369,00	6,63
370,00	11,26
371,00	-2,46
372,00	8,89
373,00	0,76
374,00	4,83
375,00	-1,11
376,00	12,61
377,00	5,44
378,00	5,12
379,00	3,25
380,00	9,05
381,00	4,81
382,00	11,55
383,00	12,65
384,00	14,85
385,00	9,13
386,00	10,01
387,00	5,57
388,00	9,56
389,00	7,23
390,00	2,00
391,00	6,65
392,00	9,25
393,00	10,95
394,00	6,78
395,00	8,23
396,00	12,45
397,00	8,27
398,00	8,68
399,00	5,69
400,00	7,29
401,00	0,59
402,00	11,22
403,00	1,04
404,00	15,91
405,00	6,00
406,00	9,38
407,00	5,44
408,00	9,93
409,00	5,65
410,00	13,10
411,00	2,37
412,00	12,80
413,00	9,25
414,00	7,64
415,00	5,65
416,00	10,97
417,00	4,99
418,00	11,16
419,00	4,83
420,00	9,66
421,00	5,83
422,00	19,90
423,00	18,63
424,00	39,34
425,00	170,18
426,00	443,40
427,00	1352,86
428,00	2864,47
429,00	4269,15
430,00	4648,39
431,00	6436,27
432,00	7115,85
433,00	9071,33
434,00	8401,48
435,00	10074,59
436,00	9647,28
437,00	11428,85
438,00	10656,42
439,00	11294,36
440,00	11874,02
441,00	12236,65
442,00	12774,96
443,00	12475,08
444,00	12472,84
445,00	14188,73
446,00	13778,87
447,00	14255,52
448,00	13845,11
449,00	14235,12
450,00	13589,95
451,00	14121,34
452,00	13248,20
453,00	14625,50
454,00	13248,82
455,00	12683,23
456,00	11313,14
457,00	10894,06
458,00	7875,58
459,00	5366,21
460,00	2753,80
461,00	1674,68
462,00	340,31
463,00	51,81
464,00	16,32
465,00	15,05
466,00	17,06
467,00	4,38
468,00	16,01
469,00	11,73
470,00	10,26
471,00	7,55
472,00	8,52
473,00	6,14
474,00	9,19
475,00	1,96
476,00	16,52
477,00	5,87
478,00	11,51
479,00	9,34
480,00	8,41
481,00	5,92
482,00	11,28
483,00	0,80
484,00	8,89
485,00	0,92
486,00	7,96
487,00	0,92
488,00	11,16
489,00	5,75
490,00	12,69
491,00	3,29
492,00	13,74
493,00	3,03
494,00	9,15
495,00	5,24
496,00	5,01
497,00	3,34
498,00	17,41
499,00	2,99
500,00	8,21
501,00	5,36
502,00	11,14
503,00	4,56
504,00	3,03
505,00	3,34
506,00	10,46
507,00	4,01
508,00	9,25
509,00	5,98
510,00	11,36
511,00	7,41
512,00	10,38
513,00	2,41
514,00	11,30
515,00	-0,84
516,00	13,25
517,00	7,80
518,00	8,89
519,00	2,23
520,00	11,65
521,00	4,18
522,00	14,21
523,00	8,58
524,00	14,58
525,00	4,44
526,00	11,79
527,00	4,61
528,00	8,11
529,00	5,81
530,00	4,99
531,00	3,50
532,00	13,49
533,00	9,79
534,00	9,01
535,00	4,46
536,00	7,29
537,00	2,39
538,00	2,29
539,00	6,43
540,00	8,09
541,00	-1,68
542,00	6,92
543,00	8,35
544,00	11,16
545,00	4,32
546,00	5,65
547,00	5,75
548,00	13,06
549,00	5,83
550,00	10,46
551,00	0,53
552,00	11,36
553,00	5,36
554,00	13,62
555,00	0,10
556,00	14,01
557,00	5,67
558,00	12,69
559,00	-0,45
560,00	12,18
561,00	9,58
562,00	2,09
563,00	6,37
564,00	12,61
565,00	4,50
566,00	5,69
567,00	0,20
568,00	3,68
569,00	12,02
570,00	5,57
571,00	8,37
572,00	15,58
573,00	4,85
574,00	10,54
575,00	4,32
576,00	8,25
577,00	1,68
578,00	8,60
579,00	0,49
580,00	5,08
581,00	7,57
582,00	9,60
583,00	2,80
584,00	11,08
585,00	1,29
586,00	11,53
587,00	-0,62
588,00	6,78
589,00	1,02
590,00	7,33
591,00	8,72
592,00	6,61
593,00	8,37
594,00	10,95
595,00	5,34
596,00	5,42
597,00	7,76
598,00	15,83
599,00	5,98
600,00	12,16
601,00	4,75
602,00	5,61
603,00	4,93
604,00	6,31
605,00	3,87
606,00	11,59
607,00	9,09
608,00	11,10
609,00	-3,40
610,00	7,66
611,00	2,91
612,00	9,38
613,00	11,73
614,00	5,75
615,00	6,35
616,00	9,48
617,00	-0,00
618,00	5,57
619,00	5,79
620,00	5,38
621,00	4,91
622,00	16,07
623,00	4,61
624,00	9,81
625,00	2,68
626,00	-0,94
627,00	5,81
628,00	6,35
629,00	7,41
630,00	10,34
631,00	7,60
632,00	6,22
633,00	2,82
634,00	15,15
635,00	3,89
636,00	6,74
637,00	-5,12
638,00	13,27
639,00	8,25
640,00	5,30
641,00	2,84
642,00	8,56
643,00	4,50
644,00	9,40
645,00	3,31
646,00	10,97
647,00	2,68
648,00	4,09
649,00	9,11
650,00	5,44
651,00	3,23
652,00	8,68
653,00	0,14
654,00	11,42
655,00	6,12
656,00	5,94
657,00	4,42
658,00	9,77
659,00	2,76
660,00	6,26
661,00	1,82
662,00	7,21
663,00	3,46
664,00	10,67
665,00	9,89
666,00	15,25
667,00	3,36
668,00	5,53
669,00	3,66
670,00	5,75
671,00	2,82
672,00	4,34
673,00	5,30
674,00	11,08
675,00	4,26
676,00	0,63
677,00	2,17
678,00	13,31
679,00	8,76
680,00	9,97
681,00	1,12
682,00	4,11
683,00	8,29
684,00	9,91
685,00	3,27
686,00	10,67
687,00	-0,23
688,00	10,48
689,00	0,55
690,00	9,95
691,00	-0,13
692,00	8,76
693,00	-5,90
694,00	5,49
695,00	7,76
696,00	8,00
697,00	5,28
698,00	8,41
699,00	-3,18
700,00	13,86
701,00	4,13
702,00	9,07
703,00	11,47
704,00	9,66
705,00	7,66
706,00	12,20
707,00	-1,48
708,00	12,72
709,00	3,46
710,00	17,34
711,00	7,10
712,00	17,81
713,00	12,22
714,00	1,92
715,00	3,95
716,00	14,89
717,00	3,48
718,00	8,05
719,00	8,35
720,00	9,07
721,00	5,12
722,00	12,06
723,00	9,73
724,00	13,12
725,00	3,60
726,00	5,38
727,00	-0,72
728,00	9,42
729,00	3,34
730,00	10,26
731,00	5,71
732,00	11,02
733,00	0,12
734,00	9,40
735,00	0,49
736,00	10,77
737,00	1,53
738,00	8,89
739,00	3,85
740,00	8,05
741,00	9,13
742,00	5,34
743,00	5,38
744,00	11,42
745,00	3,68
746,00	7,08
747,00	4,01
748,00	10,28
749,00	1,41
750,00	7,29
751,00	-0,33
752,00	14,48
753,00	7,49
754,00	4,44
755,00	-1,15
756,00	9,07
757,00	5,38
758,00	12,67
759,00	6,47
760,00	7,64
761,00	5,40
762,00	9,42
763,00	5,67
764,00	7,88
765,00	2,76
766,00	10,38
767,00	4,77
768,00	12,53
769,00	11,06
770,00	12,92
771,00	4,71
772,00	5,42
773,00	7,66
774,00	4,30
775,00	-0,84
776,00	6,76
777,00	2,82
778,00	8,80
779,00	2,60
780,00	6,92
781,00	3,58
782,00	12,00
783,00	4,93
784,00	7,64
785,00	4,05
786,00	15,03
787,00	3,38
788,00	9,54
789,00	5,49
790,00	17,90
791,00	3,56
792,00	10,13
793,00	12,31
794,00	6,06
795,00	7,25
796,00	11,18
797,00	12,53
798,00	4,36
799,00	-3,10
800,00	8,25
801,00	8,07
802,00	0,04
803,00	4,81
804,00	7,62
805,00	5,16
806,00	9,75
807,00	1,29
808,00	8,91
809,00	-2,91
810,00	10,83
811,00	-0,39
812,00	8,84
813,00	0,98
814,00	8,72
815,00	0,24
816,00	1,80
817,00	6,35
818,00	14,95
819,00	-0,13
820,00	9,81
821,00	2,66
822,00	7,35
823,00	-4,08
824,00	9,60
825,00	1,78
826,00	9,23
827,00	3,93
828,00	6,06
829,00	-1,40
830,00	7,27
831,00	-0,54
832,00	12,10
833,00	14,29
834,00	12,51
835,00	-0,31
836,00	8,70
837,00	5,32
838,00	8,74
839,00	1,29
840,00	14,97
841,00	3,77
842,00	8,41
843,00	1,06
844,00	14,76
845,00	7,68
846,00	13,51
847,00	4,50
848,00	7,88
849,00	2,78
850,00	2,50
851,00	7,25
852,00	9,73
853,00	1,96
854,00	9,19
855,00	5,38
856,00	9,15
857,00	0,10
858,00	4,83
859,00	4,26
860,00	14,46
861,00	2,88
862,00	10,32
863,00	0,80
864,00	10,97
865,00	1,00
866,00	7,66
867,00	9,87
868,00	10,13
869,00	5,55
870,00	10,09
871,00	2,72
872,00	12,20
873,00	7,60
874,00	9,83
875,00	6,67
876,00	6,67
877,00	9,15
878,00	5,38
879,00	1,94
880,00	14,19
881,00	0,96
882,00	13,96
883,00	7,14
884,00	11,47
885,00	0,47
886,00	8,76
887,00	1,88
888,00	8,76
889,00	8,09
890,00	16,93
891,00	9,97
892,00	6,63
893,00	7,74
894,00	10,54
895,00	3,21
896,00	11,73
897,00	5,57
898,00	11,67
899,00	-1,23
900,00	6,12
901,00	3,93
902,00	9,93
903,00	13,31
904,00	4,38
905,00	4,54
906,00	7,33
907,00	0,37
908,00	14,60
909,00	6,92
910,00	5,79
911,00	6,10
912,00	9,52
913,00	3,77
914,00	10,67
915,00	5,22
916,00	4,09
917,00	7,23
918,00	14,58
919,00	0,45
920,00	8,15
921,00	5,53
922,00	14,62
923,00	9,01
924,00	4,97
925,00	6,31
926,00	11,86
927,00	0,98
928,00	14,15
929,00	0,86
930,00	3,09
931,00	6,69
932,00	13,35
933,00	5,01
934,00	5,94
935,00	3,07
936,00	15,19
937,00	8,35
938,00	13,37
939,00	1,66
940,00	11,92
941,00	2,93
942,00	14,60
943,00	4,20
944,00	9,54
945,00	10,28
946,00	13,92
947,00	6,59
948,00	16,14
949,00	34,36
950,00	212,54
951,00	1582,65
952,00	3673,58
953,00	7166,64
954,00	10328,17
955,00	14276,18
956,00	17566,82
957,00	21005,64
958,00	23656,29
959,00	26279,53
960,00	28383,41
961,00	30533,27
962,00	32134,27
963,00	33561,35
964,00	34189,20
965,00	35391,56
966,00	35861,16
967,00	36778,30
968,00	36966,90
969,00	37400,78
970,00	37503,20
971,00	38307,07
972,00	38199,30
973,00	38952,01
974,00	39098,59
975,00	39509,04
976,00	39440,39
977,00	39489,01
978,00	38995,58
979,00	38721,47
980,00	37517,13
981,00	37142,33
982,00	35648,56
983,00	33446,87
984,00	30510,74
985,00	26792,88
986,00	21267,29
987,00	16281,37
988,00	11997,31
989,00	8809,58
990,00	5586,10
991,00	3322,40
992,00	1087,84
993,00	288,47
994,00	76,24
995,00	34,18
996,00	27,54
997,00	23,20
998,00	26,97
999,00	15,34
1000,00	23,57
1001,00	7,10
1002,00	29,75
1003,00	16,26
1004,00	21,73
1005,00	15,68
1006,00	16,20
1007,00	20,56
1008,00	16,18
1009,00	11,16
1010,00	19,39
1011,00	8,78
1012,00	21,56
1013,00	4,95
1014,00	17,34
1015,00	16,42
1016,00	20,89
1017,00	7,47
1018,00	18,06
1019,00	7,92
1020,00	10,75
1021,00	10,89
1022,00	18,67
1023,00	11,20
1024,00	11,55
1025,00	7,29
1026,00	9,58
1027,00	8,60
1028,00	15,07
1029,00	7,29
1030,00	8,27
1031,00	8,95
1032,00	14,17
1033,00	8,50
1034,00	17,28
1035,00	5,20
1036,00	9,01
1037,00	6,10
1038,00	19,72
1039,00	4,65
1040,00	14,19
1041,00	4,20
1042,00	10,24
1043,00	5,22
1044,00	12,80
1045,00	8,54
1046,00	9,70
1047,00	2,93
1048,00	10,28
1049,00	3,36
1050,00	10,89
1051,00	4,95
1052,00	10,87
1053,00	7,90
1054,00	15,68
1055,00	4,52
1056,00	9,32
1057,00	5,96
1058,00	12,72
1059,00	9,32
1060,00	10,71
1061,00	5,36
1062,00	11,77
1063,00	6,51
1064,00	7,90
1065,00	5,30
1066,00	13,92
1067,00	9,70
1068,00	15,66
1069,00	11,06
1070,00	10,22
1071,00	4,38
1072,00	8,23
1073,00	5,87
1074,00	11,26
1075,00	6,69
1076,00	11,47
1077,00	5,30
1078,00	14,85
1079,00	2,23
1080,00	6,47
1081,00	10,16
1082,00	9,85
1083,00	6,82
1084,00	10,91
1085,00	3,99
1086,00	18,16
1087,00	5,38
1088,00	4,42
1089,00	5,87
1090,00	19,51
1091,00	6,90
1092,00	11,73
1093,00	7,80
1094,00	9,19
1095,00	10,28
1096,00	11,16
1097,00	8,95
1098,00	12,16
1099,00	12,55
1100,00	8,33
1101,00	12,00
1102,00	24,47
1103,00	34,71
1104,00	71,92
1105,00	178,01
1106,00	295,93
1107,00	701,69
1108,00	877,29
1109,00	1507,43
1110,00	1610,54
1111,00	2386,70
1112,00	2558,52
1113,00	3494,67
1114,00	3784,23
1115,00	4871,01
1116,00	5185,33
1117,00	6175,61
1118,00	6624,62
1119,00	7411,76
1120,00	7515,16
1121,00	8261,50
1122,00	8482,50
1123,00	9149,26
1124,00	9057,02
1125,00	9558,56
1126,00	9572,39
1127,00	9975,76
1128,00	9839,42
1129,00	10298,33
1130,00	9930,54
1131,00	10381,95
1132,00	9952,92
1133,00	10195,09
1134,00	9731,68
1135,00	9648,92
1136,00	8861,19
1137,00	8612,65
1138,00	7458,35
1139,00	7021,89
1140,00	6105,91
1141,00	6002,78
1142,00	5105,64
1143,00	4945,19
1144,00	4077,50
1145,00	3877,23
1146,00	2889,80
1147,00	2376,23
1148,00	1218,83
1149,00	815,48
1150,00	307,23
1151,00	184,11
1152,00	74,89
1153,00	40,40
1154,00	27,19
1155,00	17,69
1156,00	23,45
1157,00	15,83
1158,00	17,36
1159,00	9,30
1160,00	16,07
1161,00	9,01
1162,00	15,71
1163,00	10,22
1164,00	15,01
1165,00	3,44
1166,00	15,66
1167,00	5,87
1168,00	18,14
1169,00	9,83
1170,00	9,36
1171,00	6,67
1172,00	9,01
1173,00	-0,02
1174,00	13,62
1175,00	12,90
1176,00	13,72
1177,00	5,20
1178,00	9,77
1179,00	2,07
1180,00	14,87
1181,00	5,49
1182,00	7,45
1183,00	6,26
1184,00	9,44
1185,00	10,50
1186,00	-1,87
1187,00	7,64
1188,00	10,48
1189,00	5,28
1190,00	9,42
1191,00	2,88
1192,00	6,80
1193,00	5,65
1194,00	15,40
1195,00	0,26
1196,00	5,51
1197,00	2,45
1198,00	17,65
1199,00	8,72
1200,00	12,86
1201,00	4,01
1202,00	15,23
1203,00	3,66
1204,00	7,62
1205,00	8,99
1206,00	7,35
1207,00	-1,62
1208,00	14,91
1209,00	4,48
1210,00	16,09
1211,00	3,36
1212,00	8,07
1213,00	3,42
1214,00	6,71
1215,00	5,30
1216,00	7,70
1217,00	0,67
1218,00	13,94
1219,00	-1,01
1220,00	18,35
1221,00	5,14
1222,00	6,43
1223,00	2,95
1224,00	10,85
1225,00	7,39
1226,00	18,61
1227,00	-0,49
1228,00	10,26
1229,00	2,17
1230,00	13,88
1231,00	1,33
1232,00	7,08
1233,00	3,56
1234,00	10,28
1235,00	5,18
1236,00	8,89
1237,00	1,29
1238,00	5,63
1239,00	16,11
1240,00	14,95
1241,00	7,86
1242,00	15,50
1243,00	4,52
1244,00	13,35
1245,00	9,27
1246,00	18,45
1247,00	6,35
1248,00	12,59
1249,00	10,52
1250,00	12,22
1251,00	5,22
1252,00	10,13
1253,00	1,41
1254,00	7,60
1255,00	-0,68
1256,00	8,11
1257,00	3,58
1258,00	10,65
1259,00	2,97
1260,00	7,68
1261,00	3,27
1262,00	9,07
1263,00	6,24
1264,00	10,36
1265,00	13,98
1266,00	7,37
1267,00	10,89
1268,00	12,49
1269,00	3,34
1270,00	9,70
1271,00	6,16
1272,00	5,32
1273,00	1,94
1274,00	9,23
1275,00	5,38
1276,00	9,09
1277,00	6,00
1278,00	12,96
1279,00	2,00
1280,00	11,32
1281,00	7,17
1282,00	12,45
1283,00	3,95
1284,00	12,06
1285,00	6,14
1286,00	14,13
1287,00	5,28
1288,00	14,44
1289,00	0,18
1290,00	14,37
1291,00	10,99
1292,00	11,04
1293,00	-0,19
1294,00	15,11
1295,00	2,07
1296,00	7,74
1297,00	6,00
1298,00	5,83
1299,00	1,98
1300,00	9,07
1301,00	-1,99
1302,00	10,28
1303,00	-1,35
1304,00	9,15
1305,00	3,15
1306,00	13,02
1307,00	1,14
1308,00	7,84
1309,00	4,89
1310,00	15,89
1311,00	4,93
1312,00	12,53
1313,00	-0,08
1314,00	11,98
1315,00	4,07
1316,00	12,61
1317,00	2,13
1318,00	4,44
1319,00	2,70
1320,00	7,06
1321,00	-1,07
1322,00	10,34
1323,00	1,98
1324,00	15,66
1325,00	6,43
1326,00	5,83
1327,00	3,19
1328,00	11,38
1329,00	7,76
1330,00	11,22
1331,00	3,64
1332,00	9,68
1333,00	-3,67
1334,00	10,97
1335,00	7,66
1336,00	15,48
1337,00	7,82
1338,00	6,96
1339,00	2,15
1340,00	14,21
1341,00	1,62
1342,00	10,54
1343,00	10,03
1344,00	8,80
1345,00	7,02
1346,00	8,58
1347,00	6,04
1348,00	8,91
1349,00	1,37
1350,00	6,57
1351,00	9,75
1352,00	7,47
1353,00	8,80
1354,00	6,78
1355,00	3,27
1356,00	10,63
1357,00	-3,75
1358,00	7,31
1359,00	5,85
1360,00	4,20
1361,00	4,67
1362,00	7,17
1363,00	4,44
1364,00	7,37
1365,00	2,80
1366,00	4,03
1367,00	2,11
1368,00	11,16
1369,00	5,24
1370,00	8,82
1371,00	6,51
1372,00	9,50
1373,00	1,62
1374,00	6,49
1375,00	6,39
1376,00	4,42
1377,00	12,20
1378,00	9,32
1379,00	0,92
1380,00	16,36
1381,00	8,31
1382,00	4,97
1383,00	-0,80
1384,00	7,80
1385,00	5,32
1386,00	10,38
1387,00	-1,33
1388,00	12,14
1389,00	3,66
1390,00	6,61
1391,00	8,93
1392,00	6,94
1393,00	-1,78
1394,00	8,62
1395,00	-4,39
1396,00	4,89
1397,00	-2,32
1398,00	6,65
1399,00	0,35
1400,00	7,57
1401,00	0,24
1402,00	3,66
1403,00	9,21
1404,00	3,40
1405,00	2,88
1406,00	12,94
1407,00	4,89
1408,00	22,98
1409,00	-1,25
1410,00	6,94
1411,00	10,52
1412,00	11,20
1413,00	4,54
1414,00	9,97
1415,00	1,14
1416,00	5,49
1417,00	6,22
1418,00	5,67
1419,00	3,15
1420,00	10,83
1421,00	7,66
1422,00	6,96
1423,00	4,71
1424,00	10,26
1425,00	2,19
1426,00	1,78
1427,00	7,68
1428,00	9,46
1429,00	4,40
1430,00	6,16
1431,00	10,01
1432,00	9,15
1433,00	7,10
1434,00	6,47
1435,00	3,70
1436,00	13,23
1437,00	4,77
1438,00	11,06
1439,00	1,29
1440,00	9,34
1441,00	2,13
1442,00	9,05
1443,00	8,99
1444,00	8,68
1445,00	10,20
1446,00	13,17
1447,00	6,18
1448,00	10,97
1449,00	4,22
1450,00	8,33
1451,00	-0,60
1452,00	5,71
1453,00	7,21
1454,00	13,21
1455,00	6,45
1456,00	12,16
1457,00	1,25
1458,00	9,85
1459,00	7,51
1460,00	6,78
1461,00	6,55
1462,00	10,22
1463,00	-0,04
1464,00	10,79
1465,00	8,95
1466,00	7,27
1467,00	1,08
1468,00	10,16
1469,00	-2,17
1470,00	8,72
1471,00	-0,51
1472,00	9,23
1473,00	1,00
1474,00	4,13
1475,00	6,02
1476,00	13,92
1477,00	-4,47
1478,00	9,36
1479,00	-1,60
1480,00	10,54
1481,00	6,63
1482,00	8,54
1483,00	5,71
1484,00	6,51
1485,00	4,69
1486,00	8,33
1487,00	6,12
1488,00	14,09
1489,00	0,26
1490,00	8,84
1491,00	-3,34
1492,00	7,47
1493,00	6,84
1494,00	7,76
1495,00	0,45
1496,00	14,85
1497,00	-0,00
1498,00	7,02
1499,00	5,49
1500,00	2,54
1501,00	4,85
1502,00	9,23
1503,00	2,91
1504,00	6,06
1505,00	3,87
1506,00	9,09
1507,00	6,94
1508,00	7,98
1509,00	2,70
1510,00	14,07
1511,00	6,78
1512,00	8,99
1513,00	5,20
1514,00	9,70
1515,00	11,75
1516,00	8,99
1517,00	-1,31
1518,00	4,50
1519,00	5,08
1520,00	10,48
1521,00	7,45
1522,00	8,39
1523,00	-0,49
1524,00	7,57
1525,00	6,49
1526,00	12,24
1527,00	-0,56
1528,00	5,98
1529,00	2,07
1530,00	10,46
1531,00	10,09
1532,00	6,88
1533,00	1,39
1534,00	11,20
1535,00	6,02
1536,00	0,80
1537,00	3,81
1538,00	6,63
1539,00	-0,92
1540,00	8,97
1541,00	11,36
1542,00	8,93
1543,00	7,17
1544,00	6,18
1545,00	-0,45
1546,00	9,19
1547,00	-0,21
1548,00	9,19
1549,00	5,10
1550,00	3,46
1551,00	2,43
1552,00	10,93
1553,00	1,43
1554,00	5,67
1555,00	5,42
1556,00	3,03
1557,00	6,02
1558,00	11,06
1559,00	2,17
1560,00	13,72
1561,00	4,20
1562,00	9,97
1563,00	6,88
1564,00	11,49
1565,00	5,90
1566,00	5,34
1567,00	4,22
1568,00	8,56
1569,00	8,72
1570,00	14,48
1571,00	-5,04
1572,00	8,82
1573,00	9,62
1574,00	7,33
1575,00	7,98
1576,00	2,74
1577,00	4,67
1578,00	12,31
1579,00	-0,25
1580,00	15,38
1581,00	8,52
1582,00	11,67
1583,00	0,59
1584,00	14,19
1585,00	0,28
1586,00	12,16
1587,00	10,87
1588,00	7,25
1589,00	4,77
1590,00	12,37
1591,00	6,53
1592,00	9,60
1593,00	1,70
1594,00	8,33
1595,00	3,95
1596,00	-1,89
1597,00	3,54
1598,00	10,01
1599,00	-0,88
1600,00	5,12
1601,00	2,95
1602,00	9,01
1603,00	-0,51
1604,00	0,61
1605,00	1,86
1606,00	3,40
1607,00	7,78
1608,00	8,21
1609,00	4,09
1610,00	13,00
1611,00	13,19
1612,00	10,09
1613,00	2,97
1614,00	8,03
1615,00	4,36
1616,00	14,64
1617,00	8,27
1618,00	10,44
1619,00	7,08
1620,00	6,59
1621,00	2,64
1622,00	4,50
1623,00	9,23
1624,00	4,91
1625,00	-1,78
1626,00	12,51
1627,00	3,46
1628,00	-0,92
1629,00	11,12
1630,00	12,80
1631,00	-0,19
1632,00	3,91
1633,00	10,44
1634,00	10,46
1635,00	5,65
1636,00	16,16
1637,00	0,82
1638,00	10,26
1639,00	1,06
1640,00	7,96
1641,00	-3,07
1642,00	4,46
1643,00	1,43
1644,00	13,62
1645,00	3,60
1646,00	15,42
1647,00	9,19
1648,00	9,21
1649,00	6,37
1650,00	11,77
1651,00	3,81
1652,00	8,74
1653,00	3,01
1654,00	7,04
1655,00	1,98
1656,00	8,15
1657,00	1,92
1658,00	10,22
1659,00	4,54
1660,00	5,94
1661,00	6,69
1662,00	7,45
1663,00	7,27
1664,00	2,72
1665,00	0,63
1666,00	8,13
1667,00	-0,45
1668,00	7,86
1669,00	6,00
1670,00	7,72
1671,00	5,85
1672,00	12,18
1673,00	5,59
1674,00	10,61
1675,00	5,01
1676,00	8,35
1677,00	7,43
1678,00	7,25
1679,00	4,54
1680,00	12,80
1681,00	8,00
1682,00	9,64
1683,00	4,91
1684,00	6,43
1685,00	4,85
1686,00	8,84
1687,00	9,15
1688,00	11,53
1689,00	8,80
1690,00	13,74
1691,00	7,12
1692,00	11,59
1693,00	9,05
1694,00	14,37
1695,00	2,45
1696,00	8,72
1697,00	2,29
1698,00	8,78
1699,00	9,34
1700,00	11,77
1701,00	4,03
1702,00	10,01
1703,00	11,83
1704,00	14,76
1705,00	16,07
1706,00	27,95
1707,00	29,65
1708,00	52,10
1709,00	68,95
1710,00	76,78
1711,00	129,22
1712,00	127,73
1713,00	215,79
1714,00	187,67
1715,00	281,94
1716,00	251,12
1717,00	388,97
1718,00	291,26
1719,00	434,13
1720,00	353,33
1721,00	526,51
1722,00	394,15
1723,00	564,29
1724,00	444,14
1725,00	673,84
1726,00	523,46
1727,00	752,93
1728,00	575,56
1729,00	817,63
1730,00	662,90
1731,00	879,95
1732,00	670,71
1733,00	939,09
1734,00	670,99
1735,00	891,05
1736,00	620,37
1737,00	759,92
1738,00	455,22
1739,00	437,05
1740,00	198,98
1741,00	161,95
1742,00	76,35
1743,00	58,55
1744,00	37,21
1745,00	20,35
1746,00	20,44
1747,00	11,88
1748,00	18,82
1749,00	9,42
1750,00	9,93
1751,00	5,51
1752,00	8,05
1753,00	1,98
1754,00	8,15
1755,00	3,48
1756,00	15,56
1757,00	6,76
1758,00	12,10
1759,00	5,34
1760,00	5,85
1761,00	7,88
1762,00	17,81
1763,00	8,17
1764,00	18,14
1765,00	13,78
1766,00	22,32
1767,00	14,33
1768,00	19,99
1769,00	20,21
1770,00	23,14
1771,00	21,26
1772,00	26,87
1773,00	27,69
1774,00	21,79
1775,00	24,82
1776,00	23,51
1777,00	27,73
1778,00	30,94
1779,00	29,43
1780,00	29,16
1781,00	24,78
1782,00	31,47
1783,00	30,92
1784,00	31,86
1785,00	34,44
1786,00	31,06
1787,00	34,57
1788,00	30,39
1789,00	27,52
1790,00	26,27
1791,00	22,16
1792,00	23,22
1793,00	18,22
1794,00	8,91
1795,00	13,21
1796,00	17,67
1797,00	6,39
1798,00	15,50
1799,00	0,71
1800,00	11,47
1801,00	5,42
1802,00	9,30
1803,00	4,42
1804,00	7,70
1805,00	2,23
1806,00	10,54
1807,00	6,37
1808,00	11,34
1809,00	6,18
1810,00	11,96
1811,00	10,87
1812,00	12,55
1813,00	8,52
1814,00	17,59
1815,00	12,00
1816,00	14,87
1817,00	4,38
1818,00	10,05
1819,00	-0,41
1820,00	6,51
1821,00	2,29
1822,00	16,95
1823,00	-0,86
1824,00	9,68
1825,00	5,81
1826,00	14,37
1827,00	6,35
1828,00	7,64
1829,00	10,71
1830,00	10,91
1831,00	2,86
1832,00	15,62
1833,00	0,65
1834,00	11,59
1835,00	4,15
1836,00	10,73
1837,00	3,48
1838,00	8,80
1839,00	6,90
1840,00	9,36
1841,00	6,67
1842,00	11,59
1843,00	-1,23
1844,00	9,42
1845,00	4,48
1846,00	11,71
1847,00	0,16
1848,00	12,49
1849,00	4,46
1850,00	6,57
1851,00	3,70
1852,00	9,25
1853,00	5,90
1854,00	8,54
1855,00	2,88
1856,00	11,79
1857,00	8,82
1858,00	10,91
1859,00	4,79
1860,00	8,89
1861,00	2,97
1862,00	9,34
1863,00	4,93
1864,00	9,42
1865,00	8,13
1866,00	7,41
1867,00	5,32
1868,00	16,83
1869,00	16,03
1870,00	15,36
1871,00	9,44
1872,00	13,58
1873,00	13,10
1874,00	13,53
1875,00	11,63
1876,00	18,39
1877,00	17,73
1878,00	28,34
1879,00	14,95
1880,00	18,04
1881,00	19,94
1882,00	24,47
1883,00	19,92
1884,00	25,27
1885,00	19,00
1886,00	23,41
1887,00	19,99
1888,00	21,23
1889,00	19,76
1890,00	22,05
1891,00	26,38
1892,00	26,81
1893,00	24,10
1894,00	24,82
1895,00	30,84
1896,00	30,04
1897,00	20,62
1898,00	22,22
1899,00	20,56
1900,00	19,56
1901,00	12,08
1902,00	13,82
1903,00	7,90
1904,00	11,92
1905,00	12,88
1906,00	13,21
1907,00	6,14
1908,00	10,56
1909,00	12,12
1910,00	8,52
1911,00	4,61
1912,00	7,66
1913,00	-0,84
1914,00	3,34
1915,00	-2,79
1916,00	18,20
1917,00	2,05
1918,00	6,02
1919,00	1,90
1920,00	11,02
1921,00	4,54
1922,00	7,84
1923,00	4,32
1924,00	12,76
1925,00	12,82
1926,00	20,40
1927,00	24,94
1928,00	19,49
1929,00	20,27
1930,00	28,77
1931,00	28,16
1932,00	40,79
1933,00	39,13
1934,00	46,59
1935,00	46,53
1936,00	47,12
1937,00	52,02
1938,00	52,63
1939,00	59,16
1940,00	50,30
1941,00	63,67
1942,00	59,92
1943,00	79,15
1944,00	61,50
1945,00	86,61
1946,00	66,78
1947,00	87,34
1948,00	69,71
1949,00	99,26
1950,00	71,43
1951,00	101,60
1952,00	80,07
1953,00	89,76
1954,00	68,38
1955,00	84,50
1956,00	62,05
1957,00	60,41
1958,00	41,30
1959,00	33,52
1960,00	23,84
1961,00	20,44
1962,00	15,58
1963,00	20,35
1964,00	10,48
1965,00	9,13
1966,00	10,22
1967,00	10,95
1968,00	10,01
1969,00	6,18
1970,00	15,23
1971,00	3,93
1972,00	9,83
1973,00	3,36
1974,00	9,89
1975,00	4,73
1976,00	9,36
1977,00	6,06
1978,00	0,41
1979,00	3,68
1980,00	13,60
1981,00	1,47
1982,00	12,14
1983,00	5,96
1984,00	18,80
1985,00	13,10
1986,00	24,96
1987,00	45,24
1988,00	70,26
1989,00	152,12
1990,00	197,85
1991,00	418,66
1992,00	458,91
1993,00	905,94
1994,00	863,58
1995,00	1382,36
1996,00	1347,70
1997,00	1862,99
1998,00	1719,02
1999,00	2276,29
2000,00	2089,58
2001,00	2633,77
2002,00	2387,17
2003,00	2847,10
2004,00	2509,99
2005,00	3092,47
2006,00	2840,65
2007,00	3380,35
2008,00	3088,76
2009,00	3578,60
2010,00	3320,53
2011,00	3747,98
2012,00	3485,15
2013,00	3928,80
2014,00	3650,71
2015,00	4003,71
2016,00	3550,85
2017,00	3957,68
2018,00	3346,99
2019,00	3653,12
2020,00	2797,62
2021,00	2811,31
2022,00	1902,91
2023,00	1707,51
2024,00	908,23
2025,00	810,01
2026,00	372,17
2027,00	258,57
2028,00	113,91
2029,00	75,42
2030,00	47,43
2031,00	29,43
2032,00	24,55
2033,00	14,97
2034,00	14,97
2035,00	8,78
2036,00	17,28
2037,00	8,80
2038,00	12,06
2039,00	13,25
2040,00	11,77
2041,00	3,29
2042,00	16,30
2043,00	5,18
2044,00	15,64
2045,00	2,21
2046,00	9,54
2047,00	6,08
2048,00	10,28
2049,00	4,03
2050,00	10,65
2051,00	5,63
2052,00	14,64
2053,00	12,84
2054,00	18,04
2055,00	37,00
2056,00	50,68
2057,00	125,39
2058,00	181,04
2059,00	449,92
2060,00	543,16
2061,00	1073,09
2062,00	1054,27
2063,00	1678,55
2064,00	1581,27
2065,00	2192,53
2066,00	2045,28
2067,00	2621,19
2068,00	2431,98
2069,00	3004,63
2070,00	2736,35
2071,00	3222,44
2072,00	2939,04
2073,00	3450,27
2074,00	3138,12
2075,00	3705,67
2076,00	3402,12
2077,00	3913,67
2078,00	3604,32
2079,00	4168,27
2080,00	3874,02
2081,00	4379,80
2082,00	4096,00
2083,00	4493,06
2084,00	4158,11
2085,00	4467,25
2086,00	4094,79
2087,00	4316,58
2088,00	3750,28
2089,00	3794,72
2090,00	2853,70
2091,00	2427,25
2092,00	1354,20
2093,00	1053,80
2094,00	402,20
2095,00	266,25
2096,00	110,49
2097,00	72,78
2098,00	42,16
2099,00	27,44
2100,00	22,73
2101,00	18,88
2102,00	26,56
2103,00	20,35
2104,00	32,05
2105,00	41,39
2106,00	55,87
2107,00	83,86
2108,00	97,19
2109,00	166,93
2110,00	162,69
2111,00	250,63
2112,00	234,74
2113,00	368,98
2114,00	293,49
2115,00	438,34
2116,00	355,71
2117,00	529,91
2118,00	415,63
2119,00	601,30
2120,00	470,60
2121,00	656,13
2122,00	521,70
2123,00	758,28
2124,00	585,39
2125,00	834,30
2126,00	683,12
2127,00	945,44
2128,00	761,66
2129,00	1052,61
2130,00	801,35
2131,00	1059,08
2132,00	825,45
2133,00	1035,63
2134,00	765,98
2135,00	943,23
2136,00	628,91
2137,00	674,29
2138,00	326,10
2139,00	282,72
2140,00	128,63
2141,00	92,20
2142,00	52,86
2143,00	36,29
2144,00	28,03
2145,00	15,68
2146,00	17,88
2147,00	10,71
2148,00	15,56
2149,00	8,21
2150,00	9,34
2151,00	6,82
2152,00	7,82
2153,00	4,30
2154,00	8,56
2155,00	3,13
2156,00	13,17
2157,00	4,63
2158,00	2,25
2159,00	4,73
2160,00	8,41
2161,00	5,67
2162,00	13,84
2163,00	2,52
2164,00	11,53
2165,00	2,56
2166,00	14,29
2167,00	5,73
2168,00	13,58
2169,00	12,76
2170,00	8,05
2171,00	4,56
2172,00	12,53
2173,00	3,60
2174,00	7,84
2175,00	7,45
2176,00	8,52
2177,00	2,29
2178,00	9,75
2179,00	4,15
2180,00	13,41
2181,00	1,98
2182,00	9,50
2183,00	3,85
2184,00	8,03
2185,00	4,13
2186,00	13,10
2187,00	2,48
2188,00	10,20
2189,00	5,12
2190,00	9,27
2191,00	2,11
2192,00	8,82
2193,00	-3,40
2194,00	14,03
2195,00	8,46
2196,00	8,27
2197,00	2,70
2198,00	7,76
2199,00	8,07
2200,00	13,90
2201,00	0,59
2202,00	16,26
2203,00	5,73
2204,00	10,52
2205,00	3,11
2206,00	2,64
2207,00	3,64
2208,00	9,79
2209,00	5,57
2210,00	6,84
2211,00	8,60
2212,00	10,03
2213,00	3,56
2214,00	10,05
2215,00	5,36
2216,00	13,21
2217,00	7,08
2218,00	12,84
2219,00	6,10
2220,00	5,63
2221,00	2,02
2222,00	16,63
2223,00	8,86
2224,00	14,15
2225,00	6,61
2226,00	24,49
2227,00	16,48
2228,00	29,86
2229,00	22,93
2230,00	26,17
2231,00	34,34
2232,00	32,56
2233,00	36,86
2234,00	44,01
2235,00	48,66
2236,00	45,36
2237,00	61,05
2238,00	47,28
2239,00	50,77
2240,00	46,90
2241,00	64,12
2242,00	56,95
2243,00	69,14
2244,00	67,70
2245,00	75,34
2246,00	72,68
2247,00	87,04
2248,00	78,33
2249,00	98,30
2250,00	83,23
2251,00	99,26
2252,00	89,45
2253,00	126,15
2254,00	92,03
2255,00	140,98
2256,00	121,48
2257,00	161,03
2258,00	132,95
2259,00	170,65
2260,00	119,48
2261,00	144,73
2262,00	112,90
2263,00	148,35
2264,00	121,56
2265,00	161,52
2266,00	129,49
2267,00	172,99
2268,00	145,75
2269,00	201,52
2270,00	156,93
2271,00	221,06
2272,00	172,13
2273,00	256,69
2274,00	193,76
2275,00	283,62
2276,00	228,82
2277,00	301,89
2278,00	248,93
2279,00	350,26
2280,00	269,43
2281,00	403,80
2282,00	301,01
2283,00	436,32
2284,00	322,35
2285,00	444,57
2286,00	321,22
2287,00	433,18
2288,00	290,81
2289,00	375,45
2290,00	229,68
2291,00	227,40
2292,00	137,95
2293,00	128,57
2294,00	74,85
2295,00	63,87
2296,00	39,44
2297,00	23,34
2298,00	24,90
2299,00	17,79
2300,00	10,65
2301,00	6,00
2302,00	10,56
2303,00	9,03
2304,00	11,30
2305,00	4,26
2306,00	5,12
2307,00	6,98
2308,00	13,29
2309,00	9,27
2310,00	15,79
2311,00	24,63
2312,00	30,35
2313,00	62,44
2314,00	80,34
2315,00	153,74
2316,00	156,34
2317,00	318,68
2318,00	320,05
2319,00	553,07
2320,00	491,59
2321,00	781,52
2322,00	682,95
2323,00	1029,18
2324,00	864,75
2325,00	1200,72
2326,00	1008,56
2327,00	1351,60
2328,00	1166,36
2329,00	1555,72
2330,00	1296,57
2331,00	1690,88
2332,00	1427,55
2333,00	1794,39
2334,00	1557,97
2335,00	1978,05
2336,00	1677,75
2337,00	2063,84
2338,00	1741,71
2339,00	2135,60
2340,00	1782,26
2341,00	2131,15
2342,00	1681,65
2343,00	1922,36
2344,00	1328,15
2345,00	1502,51
2346,00	994,04
2347,00	1057,02
2348,00	650,53
2349,00	559,87
2350,00	236,15
2351,00	191,30
2352,00	83,04
2353,00	55,70
2354,00	38,64
2355,00	21,85
2356,00	17,92
2357,00	9,48
2358,00	8,62
2359,00	3,89
2360,00	16,20
2361,00	10,65
2362,00	17,69
2363,00	4,20
2364,00	9,07
2365,00	6,18
2366,00	11,90
2367,00	3,64
2368,00	11,47
2369,00	7,14
2370,00	12,57
2371,00	8,35
2372,00	11,38
2373,00	6,71
2374,00	6,94
2375,00	11,24
2376,00	9,38
2377,00	-3,22
2378,00	9,36
2379,00	7,06
2380,00	12,08
2381,00	5,81
2382,00	10,07
2383,00	5,18
2384,00	7,60
2385,00	2,82
2386,00	8,78
2387,00	8,56
2388,00	4,30
2389,00	5,85
2390,00	9,21
2391,00	4,32
2392,00	14,01
2393,00	9,15
2394,00	15,46
2395,00	9,66
2396,00	21,81
2397,00	19,45
2398,00	32,85
2399,00	41,55
2400,00	56,58
2401,00	70,63
2402,00	76,24
2403,00	109,40
2404,00	98,65
2405,00	142,66
2406,00	128,14
2407,00	165,86
2408,00	147,00
2409,00	195,11
2410,00	167,56
2411,00	226,28
2412,00	175,98
2413,00	244,34
2414,00	190,52
2415,00	273,54
2416,00	223,98
2417,00	323,54
2418,00	251,61
2419,00	379,22
2420,00	286,49
2421,00	423,19
2422,00	315,63
2423,00	442,07
2424,00	318,52
2425,00	439,61
2426,00	306,74
2427,00	400,03
2428,00	287,72
2429,00	326,77
2430,00	191,63
2431,00	183,27
2432,00	88,74
2433,00	68,05
2434,00	44,95
2435,00	25,04
2436,00	19,94
2437,00	17,79
2438,00	25,31
2439,00	12,26
2440,00	13,08
2441,00	8,89
2442,00	7,27
2443,00	2,02
2444,00	12,63
2445,00	9,44
2446,00	9,27
2447,00	2,78
2448,00	9,83
2449,00	1,21
2450,00	13,60
2451,00	-0,15
2452,00	8,54
2453,00	7,21
2454,00	16,87
2455,00	0,55
2456,00	-2,69
2457,00	1,82
2458,00	15,25
2459,00	2,93
2460,00	6,26
2461,00	4,85
2462,00	3,23
2463,00	5,16
2464,00	11,90
2465,00	1,45
2466,00	3,21
2467,00	9,38
2468,00	8,37
2469,00	5,44
2470,00	18,02
2471,00	3,68
2472,00	6,98
2473,00	5,34
2474,00	16,85
2475,00	9,21
2476,00	18,55
2477,00	25,08
2478,00	12,16
2479,00	21,21
2480,00	30,63
2481,00	35,82
2482,00	42,31
2483,00	55,74
2484,00	55,11
2485,00	101,52
2486,00	96,25
2487,00	169,86
2488,00	148,91
2489,00	230,62
2490,00	193,92
2491,00	310,84
2492,00	241,43
2493,00	368,59
2494,00	279,18
2495,00	448,97
2496,00	362,82
2497,00	537,57
2498,00	423,05
2499,00	582,13
2500,00	459,58
2501,00	646,54
2502,00	496,57
2503,00	692,62
2504,00	539,27
2505,00	731,37
2506,00	549,22
2507,00	770,14
2508,00	546,74
2509,00	725,90
2510,00	471,79
2511,00	546,09
2512,00	334,64
2513,00	358,47
2514,00	227,53
2515,00	244,22
2516,00	148,93
2517,00	166,17
2518,00	102,17
2519,00	89,99
2520,00	54,37
2521,00	42,31
2522,00	30,63
2523,00	21,81
2524,00	15,07
2525,00	11,71
2526,00	14,97
2527,00	7,04
2528,00	7,29
2529,00	9,01
2530,00	10,18
2531,00	6,57
2532,00	10,34
2533,00	11,94
2534,00	12,82
2535,00	4,13
2536,00	12,69
2537,00	3,01
2538,00	7,70
2539,00	10,54
2540,00	21,81
2541,00	7,68
2542,00	16,69
2543,00	10,28
2544,00	8,76
2545,00	15,91
2546,00	16,85
2547,00	14,91
2548,00	17,71
2549,00	18,47
2550,00	22,69
2551,00	15,66
2552,00	15,52
2553,00	13,51
2554,00	18,04
2555,00	17,47
2556,00	27,56
2557,00	18,22
2558,00	19,66
2559,00	23,14
2560,00	23,71
2561,00	24,37
2562,00	25,37
2563,00	20,11
2564,00	27,09
2565,00	21,40
2566,00	26,89
2567,00	24,12
2568,00	14,56
2569,00	20,27
2570,00	22,83
2571,00	13,45
2572,00	21,97
2573,00	15,11
2574,00	18,29
2575,00	16,40
2576,00	14,44
2577,00	7,08
2578,00	13,70
2579,00	12,39
2580,00	10,50
2581,00	4,42
2582,00	9,95
2583,00	8,05
2584,00	2,54
2585,00	2,33
2586,00	6,12
2587,00	2,25
2588,00	6,10
2589,00	4,32
2590,00	11,65
2591,00	3,58
2592,00	7,39
2593,00	2,25
2594,00	2,88
2595,00	-0,29
2596,00	10,30
2597,00	1,33
2598,00	12,26
2599,00	1,74
2600,00	11,34
2601,00	5,57
2602,00	4,97
2603,00	6,90
2604,00	1,82
2605,00	10,81
2606,00	11,71
2607,00	10,30
2608,00	9,62
2609,00	-1,11
2610,00	8,43
2611,00	1,92
2612,00	14,27
2613,00	4,79
2614,00	9,21
2615,00	4,13
2616,00	19,51
2617,00	6,51
2618,00	8,09
2619,00	2,00
2620,00	13,29
2621,00	3,58
2622,00	12,94
2623,00	1,96
2624,00	7,72
2625,00	6,69
2626,00	8,25
2627,00	5,79
2628,00	4,77
2629,00	0,59
2630,00	16,85
2631,00	3,72
2632,00	7,17
2633,00	0,67
2634,00	9,50
2635,00	-0,49
2636,00	11,10
2637,00	5,20
2638,00	14,95
2639,00	6,35
2640,00	6,00
2641,00	9,64
2642,00	8,03
2643,00	6,35
2644,00	11,90
2645,00	4,15
2646,00	4,36
2647,00	9,40
2648,00	15,36
2649,00	6,57
2650,00	13,86
2651,00	2,58
2652,00	9,91
2653,00	10,30
2654,00	9,77
2655,00	6,96
2656,00	6,45
2657,00	6,00
2658,00	11,71
2659,00	4,56
2660,00	13,62
2661,00	2,76
2662,00	11,38
2663,00	-1,11
2664,00	5,83
2665,00	2,70
2666,00	8,72
2667,00	2,72
2668,00	8,31
2669,00	5,81
2670,00	10,95
2671,00	2,52
2672,00	5,51
2673,00	2,97
2674,00	5,53
2675,00	2,80
2676,00	1,57
2677,00	1,39
2678,00	11,30
2679,00	7,74
2680,00	7,70
2681,00	-2,34
2682,00	12,18
2683,00	3,48
2684,00	16,46
2685,00	5,30
2686,00	16,67
2687,00	0,41
2688,00	13,39
2689,00	0,82
2690,00	6,49
2691,00	6,61
2692,00	8,37
2693,00	10,54
2694,00	4,65
2695,00	3,13
2696,00	14,01
2697,00	-2,17
2698,00	9,64
2699,00	1,70
2700,00	2,23
2701,00	2,17
2702,00	6,69
2703,00	2,33
2704,00	11,51
2705,00	-2,34
2706,00	14,31
2707,00	4,50
2708,00	9,87
2709,00	5,42
2710,00	8,93
2711,00	5,30
2712,00	7,23
2713,00	4,36
2714,00	8,07
2715,00	3,48
2716,00	6,86
2717,00	4,11
2718,00	12,06
2719,00	-0,35
2720,00	11,32
2721,00	5,14
2722,00	9,97
2723,00	6,80
2724,00	7,17
2725,00	-3,34
2726,00	11,81
2727,00	4,46
2728,00	12,98
2729,00	2,70
2730,00	2,64
2731,00	8,13
2732,00	11,47
2733,00	3,36
2734,00	10,24
2735,00	0,16
2736,00	5,79
2737,00	5,81
2738,00	10,87
2739,00	0,59
2740,00	7,33
2741,00	4,01
2742,00	12,67
2743,00	6,59
2744,00	15,64
2745,00	4,26
2746,00	9,56
2747,00	3,68
2748,00	8,84
2749,00	6,02
2750,00	3,87
2751,00	6,18
2752,00	10,44
2753,00	9,97
2754,00	7,23
2755,00	2,80
2756,00	3,25
2757,00	6,45
2758,00	5,67
2759,00	1,12
2760,00	12,84
2761,00	4,01
2762,00	8,21
2763,00	4,99
2764,00	11,28
2765,00	5,94
2766,00	7,80
2767,00	3,36
2768,00	7,76
2769,00	8,62
2770,00	5,94
2771,00	0,45
2772,00	7,76
2773,00	5,83
2774,00	13,55
2775,00	5,63
2776,00	9,64
2777,00	0,08
2778,00	6,02
2779,00	4,36
2780,00	9,03
2781,00	9,75
2782,00	8,97
2783,00	1,04
2784,00	9,91
2785,00	4,81
2786,00	4,69
2787,00	3,79
2788,00	5,28
2789,00	4,56
2790,00	4,79
2791,00	5,55
2792,00	10,01
2793,00	2,58
2794,00	11,18
2795,00	-0,41
2796,00	8,11
2797,00	2,82
2798,00	10,20
2799,00	5,71
2800,00	10,36
2801,00	0,92
2802,00	6,26
2803,00	5,40
2804,00	10,36
2805,00	2,86
2806,00	11,42
2807,00	5,51
2808,00	4,22
2809,00	-3,05
2810,00	4,36
2811,00	6,16
2812,00	8,60
2813,00	2,95
2814,00	5,12
2815,00	7,90
2816,00	6,65
2817,00	5,16
2818,00	9,77
2819,00	5,28
2820,00	13,17
2821,00	0,35
2822,00	9,25
2823,00	7,35
2824,00	7,08
2825,00	5,69
2826,00	12,88
2827,00	-1,01
2828,00	3,72
2829,00	0,41
2830,00	5,30
2831,00	-0,19
2832,00	10,67
2833,00	0,90
2834,00	7,29
2835,00	4,79
2836,00	9,17
2837,00	1,00
2838,00	11,38
2839,00	5,42
2840,00	14,27
2841,00	10,42
2842,00	5,51
2843,00	5,87
2844,00	8,39
2845,00	3,99
2846,00	2,76
2847,00	3,07
2848,00	8,05
2849,00	9,91
2850,00	7,76
2851,00	6,59
2852,00	17,28
2853,00	2,37
2854,00	4,91
2855,00	4,44
2856,00	11,69
2857,00	4,81
2858,00	9,36
2859,00	3,93
2860,00	5,01
2861,00	4,26
2862,00	9,32
2863,00	4,03
2864,00	11,90
2865,00	0,14
2866,00	8,05
2867,00	4,75
2868,00	6,90
2869,00	2,91
2870,00	4,30
2871,00	6,49
2872,00	7,76
2873,00	3,27
2874,00	11,71
2875,00	6,55
2876,00	17,16
2877,00	16,93
2878,00	24,76
2879,00	30,72
2880,00	42,37
2881,00	67,56
2882,00	71,61
2883,00	102,97
2884,00	87,34
2885,00	142,88
2886,00	123,78
2887,00	176,10
2888,00	143,70
2889,00	218,21
2890,00	169,77
2891,00	237,66
2892,00	184,05
2893,00	262,26
2894,00	176,31
2895,00	279,16
2896,00	206,74
2897,00	287,59
2898,00	242,70
2899,00	352,99
2900,00	276,84
2901,00	400,58
2902,00	301,64
2903,00	423,64
2904,00	313,21
2905,00	432,28
2906,00	297,16
2907,00	425,93
2908,00	283,05
2909,00	384,89
2910,00	223,31
2911,00	312,13
2912,00	188,33
2913,00	196,56
2914,00	100,16
2915,00	64,59
2916,00	31,33
2917,00	20,21
2918,00	10,73
2919,00	4,85
2920,00	14,09
2921,00	9,25
2922,00	8,27
2923,00	1,55
2924,00	6,39
2925,00	4,36
2926,00	13,62
2927,00	9,07
2928,00	3,93
2929,00	3,58
2930,00	5,57
2931,00	-0,35
2932,00	9,85
2933,00	7,98
2934,00	6,53
2935,00	3,99
2936,00	11,45
2937,00	8,95
2938,00	11,08
2939,00	7,94
2940,00	10,36
2941,00	7,86
2942,00	13,02
2943,00	3,56
2944,00	11,12
2945,00	6,39
2946,00	14,91
2947,00	10,01
2948,00	11,45
2949,00	6,71
2950,00	16,11
2951,00	14,74
2952,00	11,69
2953,00	11,45
2954,00	12,98
2955,00	12,90
2956,00	10,46
2957,00	13,19
2958,00	17,77
2959,00	16,75
2960,00	25,00
2961,00	13,39
2962,00	14,48
2963,00	12,12
2964,00	16,73
2965,00	14,05
2966,00	15,75
2967,00	12,51
2968,00	14,89
2969,00	13,23
2970,00	13,04
2971,00	7,78
2972,00	25,27
2973,00	11,47
2974,00	10,61
2975,00	6,55
2976,00	14,82
2977,00	1,55
2978,00	10,40
2979,00	-1,19
2980,00	14,29
2981,00	-1,80
2982,00	3,56
2983,00	2,07
2984,00	3,01
2985,00	3,21
2986,00	10,38
2987,00	2,27
2988,00	5,75
2989,00	3,40
2990,00	1,94
2991,00	0,39
2992,00	9,66
2993,00	3,75
2994,00	9,87
2995,00	3,21
2996,00	5,81
2997,00	7,41
2998,00	6,43
2999,00	2,23
3000,00	8,17
3001,00	5,22
3002,00	8,60
3003,00	4,03
3004,00	8,93
3005,00	3,05
3006,00	9,66
3007,00	4,85
3008,00	9,58
3009,00	0,12
3010,00	10,48
3011,00	-0,04
3012,00	7,64
3013,00	5,98
3014,00	4,24
3015,00	-4,30
3016,00	9,11
3017,00	1,16
3018,00	9,30
3019,00	7,45
3020,00	15,73
3021,00	-0,68
3022,00	9,62
3023,00	7,80
3024,00	10,24
3025,00	-0,06
3026,00	7,55
3027,00	1,14
3028,00	12,74
3029,00	4,52
3030,00	10,50
3031,00	5,83
3032,00	13,41
3033,00	-3,12
3034,00	9,30
3035,00	3,87
3036,00	4,15
3037,00	-0,58
3038,00	11,08
3039,00	8,48
3040,00	1,12
3041,00	3,93
3042,00	9,79
3043,00	7,43
3044,00	11,14
3045,00	2,19
3046,00	10,59
3047,00	4,52
3048,00	10,18
3049,00	2,62
3050,00	7,74
3051,00	1,06
3052,00	8,21
3053,00	-1,13
3054,00	9,85
3055,00	7,25
3056,00	7,10
3057,00	2,95
3058,00	4,42
3059,00	7,43
3060,00	11,18
3061,00	-1,11
3062,00	7,90
3063,00	1,06
3064,00	10,22
3065,00	2,99
3066,00	8,95
3067,00	3,77
3068,00	2,52
3069,00	0,24
3070,00	7,27
3071,00	7,66
3072,00	5,85
3073,00	7,68
3074,00	10,93
3075,00	2,74
3076,00	12,78
3077,00	3,64
3078,00	-1,37
3079,00	3,83
3080,00	14,60
3081,00	2,58
3082,00	9,87
3083,00	0,10
3084,00	15,09
3085,00	0,02
3086,00	12,04
3087,00	4,54
3088,00	4,34
3089,00	-2,60
3090,00	9,97
3091,00	3,01
3092,00	7,04
3093,00	1,19
3094,00	10,40
3095,00	3,81
3096,00	7,94
3097,00	1,43
3098,00	7,92
3099,00	6,98
3100,00	9,44
3101,00	-1,05
3102,00	7,82
3103,00	11,86
3104,00	7,29
3105,00	0,59
3106,00	11,10
3107,00	1,82
3108,00	9,42
3109,00	6,22
3110,00	7,82
3111,00	3,03
3112,00	12,74
3113,00	4,75
3114,00	7,21
3115,00	1,02
3116,00	10,40
3117,00	-0,68
3118,00	6,98
3119,00	9,03
3120,00	8,37
3121,00	-2,46
3122,00	14,60
3123,00	-3,14
3124,00	8,62
3125,00	1,25
3126,00	10,11
3127,00	8,29
3128,00	6,67
3129,00	4,73
3130,00	7,17
3131,00	-1,11
3132,00	9,91
3133,00	3,36
3134,00	10,63
3135,00	3,81
3136,00	9,91
3137,00	1,78
3138,00	3,07
3139,00	2,93
3140,00	7,27
3141,00	-3,12
3142,00	7,76
3143,00	2,35
3144,00	12,63
3145,00	3,66
3146,00	8,23
3147,00	4,91
3148,00	8,70
3149,00	-1,23
3150,00	5,06
3151,00	0,71
3152,00	5,08
3153,00	2,25
3154,00	5,59
3155,00	0,24
3156,00	10,28
3157,00	1,41
3158,00	6,90
3159,00	8,17
3160,00	13,19
3161,00	-1,09
3162,00	12,06
3163,00	2,15
3164,00	11,59
3165,00	0,80
3166,00	6,98
3167,00	-0,17
3168,00	10,42
3169,00	7,37
3170,00	6,80
3171,00	2,43
3172,00	12,80
3173,00	4,32
3174,00	11,06
3175,00	-1,01
3176,00	10,05
3177,00	1,53
3178,00	0,55
3179,00	4,38
3180,00	3,93
3181,00	4,75
3182,00	4,73
3183,00	6,22
3184,00	6,65
3185,00	3,25
3186,00	6,31
3187,00	9,66
3188,00	5,87
3189,00	8,07
3190,00	7,84
3191,00	7,31
3192,00	12,49
3193,00	9,09
3194,00	5,67
3195,00	4,79
3196,00	8,15
3197,00	7,57
3198,00	11,02
3199,00	5,40
3200,00	6,74
3201,00	10,93
3202,00	12,00
3203,00	6,39
3204,00	15,15
3205,00	11,83
3206,00	10,83
3207,00	4,44
3208,00	15,32
3209,00	1,37
3210,00	16,93
3211,00	2,76
3212,00	14,01
3213,00	2,95
3214,00	5,24
3215,00	3,01
3216,00	14,50
3217,00	6,55
3218,00	9,23
3219,00	8,99
3220,00	16,67
3221,00	5,69
3222,00	9,89
3223,00	9,23
3224,00	9,25
3225,00	4,69
3226,00	16,36
3227,00	3,46
3228,00	14,01
3229,00	4,89
3230,00	9,03
3231,00	2,91
3232,00	9,09
3233,00	1,23
3234,00	3,79
3235,00	0,69
3236,00	9,48
3237,00	0,37
3238,00	8,64
3239,00	12,10
3240,00	10,48
3241,00	-0,60
3242,00	3,64
3243,00	4,30
3244,00	12,55
3245,00	3,62
3246,00	6,16
3247,00	-1,13
3248,00	5,51
3249,00	-0,31
3250,00	13,96
3251,00	9,81
3252,00	5,53
3253,00	-2,26
3254,00	9,15
3255,00	3,05
3256,00	4,77
3257,00	8,68
3258,00	9,99
3259,00	2,48
3260,00	10,36
3261,00	1,35
3262,00	7,51
3263,00	0,12
3264,00	7,21
3265,00	-0,41
3266,00	7,02
3267,00	6,12
3268,00	2,48
3269,00	4,73
3270,00	9,77
3271,00	-0,56
3272,00	12,51
3273,00	-3,22
3274,00	11,18
3275,00	13,80
3276,00	9,70
3277,00	10,48
3278,00	10,30
3279,00	-3,30
3280,00	7,10
3281,00	1,82
3282,00	8,74
3283,00	5,77
3284,00	11,14
3285,00	-0,84
3286,00	11,67
3287,00	6,12
3288,00	6,20
3289,00	4,26
3290,00	8,66
3291,00	6,39
3292,00	3,99
3293,00	3,13
3294,00	5,96
3295,00	1,90
3296,00	13,31
3297,00	4,11
3298,00	3,72
3299,00	3,15
3300,00	7,51
3301,00	-0,94
3302,00	10,65
3303,00	0,82
3304,00	5,44
3305,00	4,36
3306,00	8,29
3307,00	-0,70
3308,00	9,34
3309,00	2,09
3310,00	7,23
3311,00	6,86
3312,00	1,74
3313,00	3,68
3314,00	6,98
3315,00	0,73
3316,00	13,04
3317,00	5,81
3318,00	2,29
3319,00	-0,41
3320,00	10,22
3321,00	-0,17
3322,00	10,09
3323,00	-4,02
3324,00	14,33
3325,00	1,39
3326,00	4,56
3327,00	1,74
3328,00	8,54
3329,00	0,92
3330,00	9,85
3331,00	6,04
3332,00	2,95
3333,00	7,84
3334,00	5,32
3335,00	6,10
3336,00	13,37
3337,00	4,32
3338,00	1,78
3339,00	-0,58
3340,00	12,74
3341,00	7,10
3342,00	7,90
3343,00	4,34
3344,00	7,98
3345,00	3,11
3346,00	19,29
3347,00	-0,15
3348,00	7,17
3349,00	4,46
3350,00	7,14
3351,00	4,52
3352,00	6,43
3353,00	0,76
3354,00	9,83
3355,00	5,01
3356,00	7,08
3357,00	7,39
3358,00	11,30
3359,00	4,75
3360,00	9,19
3361,00	-3,46
3362,00	11,67
3363,00	5,18
3364,00	13,31
3365,00	6,28
3366,00	6,74
3367,00	2,86
3368,00	3,44
3369,00	-0,99
3370,00	6,39
3371,00	3,91
3372,00	9,81
3373,00	7,64
3374,00	5,32
3375,00	7,96
3376,00	13,12
3377,00	5,61
3378,00	10,50
3379,00	-0,29
3380,00	9,66
3381,00	4,38
3382,00	1,33
3383,00	4,56
3384,00	12,00
3385,00	3,68
3386,00	6,59
3387,00	-4,02
3388,00	10,63
3389,00	5,73
3390,00	8,89
3391,00	2,88
3392,00	4,40
3393,00	3,54
3394,00	6,51
3395,00	2,02
3396,00	6,45
3397,00	4,09
3398,00	9,42
3399,00	5,49
3400,00	10,77
3401,00	-3,22
3402,00	9,07
3403,00	-1,66
3404,00	5,28
3405,00	0,30
3406,00	14,68
3407,00	4,18
3408,00	8,13
3409,00	5,94
3410,00	7,55
3411,00	-0,58
3412,00	3,64
3413,00	-0,21
3414,00	5,42
3415,00	1,43
3416,00	0,88
3417,00	2,70
3418,00	6,45
3419,00	7,41
3420,00	10,28
3421,00	-2,56
3422,00	9,03
3423,00	6,76
3424,00	10,16
3425,00	12,57
3426,00	7,33
3427,00	5,12
3428,00	14,50
3429,00	0,32
3430,00	12,10
3431,00	-0,25
3432,00	8,60
3433,00	-3,44
3434,00	6,69
3435,00	1,72
3436,00	7,06
3437,00	1,94
3438,00	8,62
3439,00	11,06
3440,00	7,31
3441,00	1,94
3442,00	6,69
3443,00	2,88
3444,00	8,05
3445,00	5,30
3446,00	11,38
3447,00	11,98
3448,00	11,81
3449,00	4,56
3450,00	11,20
3451,00	-1,37
3452,00	9,21
3453,00	7,72
3454,00	15,05
3455,00	1,98
3456,00	-1,46
3457,00	2,17
3458,00	6,76
3459,00	9,13
3460,00	7,39
3461,00	6,28
3462,00	2,58
3463,00	1,74
3464,00	3,81
3465,00	-1,99
3466,00	12,31
3467,00	4,15
3468,00	4,11
3469,00	3,83
3470,00	5,57
3471,00	-2,26
3472,00	8,13
3473,00	3,81
3474,00	3,05
3475,00	1,31
3476,00	18,24
3477,00	0,59
3478,00	6,49
3479,00	0,59
3480,00	9,40
3481,00	3,56
3482,00	9,66
3483,00	5,14
3484,00	6,06
3485,00	2,88
3486,00	8,72
3487,00	2,41
3488,00	12,59
3489,00	4,42
3490,00	11,30
3491,00	-0,19
3492,00	5,87
3493,00	6,55
3494,00	6,33
3495,00	4,18
3496,00	10,52
3497,00	0,92
3498,00	12,59
3499,00	2,62
3500,00	14,68
3501,00	0,98
3502,00	8,05
3503,00	3,83
3504,00	6,43
3505,00	1,94
3506,00	9,54
3507,00	10,89
3508,00	6,69
3509,00	-6,45
3510,00	7,06
3511,00	6,16
3512,00	10,59
3513,00	5,98
3514,00	12,02
3515,00	7,84
3516,00	9,30
3517,00	7,92
3518,00	11,61
3519,00	6,69
3520,00	12,78
3521,00	-0,99
3522,00	10,59
3523,00	7,14
3524,00	5,16
3525,00	2,97
3526,00	9,38
3527,00	5,85
3528,00	6,41
3529,00	3,09
3530,00	11,94
3531,00	1,62
3532,00	9,77
3533,00	1,02
3534,00	10,79
3535,00	5,71
3536,00	1,00
3537,00	0,28
3538,00	6,47
3539,00	6,76
3540,00	12,78
3541,00	6,14
3542,00	6,41
3543,00	3,62
3544,00	5,34
3545,00	5,69
3546,00	6,45
3547,00	2,56
3548,00	8,74
3549,00	5,63
3550,00	11,42
3551,00	1,08
3552,00	3,48
3553,00	1,27
3554,00	7,55
3555,00	4,32
3556,00	12,78
3557,00	5,36
3558,00	8,21
3559,00	4,89
3560,00	7,70
3561,00	5,75
3562,00	7,76
3563,00	4,63
3564,00	4,67
3565,00	-3,65
3566,00	14,50
3567,00	4,30
3568,00	11,63
3569,00	1,62
3570,00	5,61
3571,00	-5,12
3572,00	7,60
3573,00	6,49
3574,00	10,81
3575,00	5,47
3576,00	8,89
3577,00	2,09
3578,00	10,77
3579,00	0,22
3580,00	9,54
3581,00	3,09
3582,00	9,60
3583,00	0,78
3584,00	9,81
3585,00	4,87
3586,00	12,31
3587,00	-1,29
3588,00	8,31
3589,00	1,23
3590,00	8,07
3591,00	7,80
3592,00	3,34
3593,00	6,26
3594,00	4,22
3595,00	8,93
3596,00	8,52
3597,00	3,34
3598,00	10,28
3599,00	-0,92
3600,00	9,21
3601,00	-1,27
3602,00	9,23
3603,00	5,59
3604,00	4,73
3605,00	7,57
3606,00	4,75
3607,00	-3,18
3608,00	5,01
3609,00	1,88
3610,00	7,90
3611,00	3,79
3612,00	3,34
3613,00	1,43
3614,00	2,39
3615,00	0,92
3616,00	4,95
3617,00	8,78
3618,00	6,20
3619,00	0,06
3620,00	3,89
3621,00	7,78
3622,00	5,90
3623,00	1,78
3624,00	4,75
3625,00	4,54
3626,00	8,70
3627,00	5,63
3628,00	13,64
3629,00	0,08
3630,00	14,44
3631,00	-4,08
3632,00	6,20
3633,00	3,91
3634,00	6,82
3635,00	9,11
3636,00	4,52
3637,00	-1,64
3638,00	9,50
3639,00	-0,70
3640,00	10,50
3641,00	2,80
3642,00	11,34
3643,00	3,27
3644,00	8,64
3645,00	4,56
3646,00	11,83
3647,00	12,29
>>>>>Finisci Dati dello Spettro Elaborati<<<<<
