File Dati SpectraSuite
++++++++++++++++++++++++++++++++++++
Data: Mon Feb 25 16:47:08 CET 2019
Utente: Studente
Spettro Scuro Presente: Si
Spettro di Riferimento Presente: No
Numero di Componenti Spettri Campionati: 1
Spettrometri: USB4F01341
Tempo di integrazione (usec): 3000 (USB4F01341)
Media Spettri: 60 (USB4F01341)
Appiattimento Boxcar: 0 (USB4F01341)
Correggi Oscurità Elettronica: Si (USB4F01341)
Strobo/Lampada Abilitato: No (USB4F01341)
Correct for Detector Non-linearity: No (USB4F01341)
Correggi Stray Light: No (USB4F01341)
Numero di Pixel nello Spettro Elaborato: 3648
>>>>>Comincia Dati dello Spettro Elaborati<<<<<
337,57	3,59
337,79	3,59
338,02	3,59
338,24	-5,96
338,47	0,32
338,69	-7,36
338,92	4,89
339,14	0,45
339,36	-0,09
339,59	-0,33
339,81	5,95
340,04	-4,70
340,26	6,73
340,49	-6,34
340,71	5,54
340,93	2,91
341,16	3,97
341,38	-12,31
341,61	2,33
341,83	-1,25
342,05	11,21
342,28	-4,49
342,50	5,61
342,73	3,46
342,95	6,63
343,17	9,50
343,40	10,52
343,62	-1,01
343,85	6,60
344,07	-5,83
344,29	-2,34
344,52	0,08
344,74	3,19
344,97	-2,92
345,19	3,42
345,41	-2,62
345,64	-0,19
345,86	0,63
346,08	9,06
346,31	1,07
346,53	6,60
346,76	3,42
346,98	11,45
347,20	12,81
347,43	1,00
347,65	-5,18
347,87	4,58
348,10	6,26
348,32	4,14
348,54	2,33
348,77	-0,23
348,99	0,11
349,21	-1,12
349,44	6,09
349,66	3,39
349,88	-6,85
350,11	5,92
350,33	3,56
350,55	3,63
350,78	-3,57
351,00	8,10
351,22	2,57
351,45	8,41
351,67	1,10
351,89	7,28
352,12	-6,71
352,34	3,63
352,56	10,80
352,79	-2,41
353,01	-0,57
353,23	4,55
353,45	1,07
353,68	8,71
353,90	-6,92
354,12	6,15
354,35	-2,00
354,57	7,25
354,79	-3,91
355,01	4,28
355,24	-6,47
355,46	13,29
355,68	0,32
355,91	2,67
356,13	1,17
356,35	6,02
356,57	5,98
356,80	-1,32
357,02	-2,41
357,24	12,98
357,46	-12,86
357,69	6,50
357,91	1,31
358,13	5,20
358,35	-1,39
358,58	1,96
358,80	-6,85
359,02	10,08
359,24	3,70
359,47	-2,41
359,69	-1,29
359,91	-2,41
360,13	0,49
360,36	4,89
360,58	2,64
360,80	4,79
361,02	1,17
361,25	7,93
361,47	-2,79
361,69	4,00
361,91	4,76
362,13	5,68
362,36	5,95
362,58	9,06
362,80	0,35
363,02	13,49
363,25	-4,53
363,47	1,92
363,69	-4,15
363,91	10,93
364,13	-4,12
364,36	1,34
364,58	6,02
364,80	1,31
365,02	-6,88
365,24	4,86
365,47	1,51
365,69	4,28
365,91	-7,60
366,13	9,88
366,35	1,51
366,57	4,72
366,80	5,44
367,02	11,27
367,24	3,22
367,46	6,94
367,68	5,54
367,90	12,37
368,13	6,15
368,35	-0,23
368,57	-4,15
368,79	8,17
369,01	-3,71
369,23	8,27
369,46	-3,61
369,68	8,00
369,90	9,12
370,12	10,52
370,34	-1,35
370,56	1,17
370,78	11,79
371,01	2,88
371,23	-0,26
371,45	-2,55
371,67	2,47
371,89	7,59
372,11	-0,94
372,33	5,37
372,56	2,98
372,78	10,80
373,00	7,28
373,22	8,00
373,44	-0,60
373,66	7,38
373,88	-3,03
374,10	11,75
374,32	-1,15
374,55	3,66
374,77	5,20
374,99	9,50
375,21	3,53
375,43	6,29
375,65	2,43
375,87	2,60
376,09	-6,41
376,31	14,31
376,53	2,20
376,75	-0,84
376,98	5,20
377,20	12,06
377,42	-2,31
377,64	12,81
377,86	-3,50
378,08	11,38
378,30	-1,56
378,52	11,55
378,74	3,12
378,96	3,15
379,18	1,55
379,40	7,18
379,62	1,17
379,84	10,90
380,07	-3,06
380,29	11,51
380,51	2,71
380,73	9,57
380,95	0,63
381,17	0,35
381,39	-1,56
381,61	8,54
381,83	-0,91
382,05	12,03
382,27	-7,46
382,49	8,00
382,71	-3,03
382,93	6,09
383,15	8,92
383,37	0,28
383,59	-0,71
383,81	5,44
384,03	1,51
384,25	3,12
384,47	3,83
384,69	16,50
384,91	-2,38
385,13	5,13
385,35	5,57
385,57	15,61
385,79	8,17
386,01	1,99
386,23	6,02
386,45	7,49
386,67	-0,16
386,89	9,29
387,11	-1,39
387,33	5,27
387,55	-4,84
387,77	8,00
387,99	-1,25
388,21	5,51
388,43	6,56
388,65	5,57
388,87	-6,68
389,09	10,76
389,31	0,52
389,53	-0,02
389,75	5,40
389,97	1,48
390,19	-3,23
390,41	4,17
390,63	0,08
390,85	11,31
391,07	8,54
391,29	4,93
391,51	-1,39
391,72	3,63
391,94	-5,48
392,16	10,01
392,38	2,30
392,60	12,84
392,82	3,12
393,04	11,48
393,26	1,34
393,48	14,07
393,70	-0,71
393,92	1,51
394,14	4,99
394,36	12,61
394,58	-3,88
394,80	15,61
395,01	-6,30
395,23	11,62
395,45	9,60
395,67	6,94
395,89	2,54
396,11	8,54
396,33	-0,36
396,55	17,79
396,77	-9,99
396,99	3,66
397,21	3,39
397,42	4,89
397,64	-1,76
397,86	6,60
398,08	-0,30
398,30	12,98
398,52	-2,58
398,74	6,80
398,96	-3,10
399,17	9,12
399,39	11,79
399,61	10,08
399,83	5,30
400,05	4,07
400,27	1,61
400,49	11,75
400,71	11,51
400,92	6,84
401,14	4,45
401,36	14,89
401,58	7,76
401,80	5,64
402,02	7,45
402,24	-2,24
402,45	1,55
402,67	-3,88
402,89	-9,27
403,11	1,00
403,33	-6,20
403,55	7,11
403,76	-2,55
403,98	5,75
404,20	6,12
404,42	6,33
404,64	-0,09
404,86	8,41
405,07	4,11
405,29	7,49
405,51	-1,29
405,73	9,06
405,95	-5,86
406,17	13,70
406,38	4,62
406,60	0,59
406,82	1,51
407,04	4,72
407,26	6,43
407,47	7,96
407,69	4,55
407,91	-1,32
408,13	4,28
408,35	3,32
408,56	11,82
408,78	7,28
409,00	4,17
409,22	14,11
409,44	4,21
409,65	15,78
409,87	-2,72
410,09	1,34
410,31	5,23
410,52	3,59
410,74	4,55
410,96	1,17
411,18	-5,62
411,40	8,51
411,61	7,62
411,83	8,10
412,05	9,40
412,27	6,12
412,48	6,36
412,70	5,95
412,92	4,89
413,14	3,70
413,35	0,56
413,57	10,01
413,79	6,87
414,01	12,61
414,22	-1,42
414,44	5,10
414,66	5,85
414,87	9,84
415,09	6,87
415,31	8,75
415,53	5,61
415,74	10,86
415,96	-0,57
416,18	2,88
416,40	5,54
416,61	8,24
416,83	6,02
417,05	7,45
417,26	1,58
417,48	-3,37
417,70	0,32
417,92	0,80
418,13	-1,39
418,35	3,12
418,57	5,95
418,78	4,38
419,00	9,06
419,22	16,19
419,43	-1,29
419,65	10,05
419,87	-0,50
420,09	8,17
420,30	-0,77
420,52	14,89
420,74	2,26
420,95	3,56
421,17	4,41
421,39	6,63
421,60	-4,56
421,82	5,30
422,04	3,36
422,25	4,14
422,47	-0,71
422,69	2,84
422,90	5,34
423,12	10,05
423,34	5,71
423,55	13,12
423,77	-6,58
423,99	4,00
424,20	9,23
424,42	8,17
424,64	3,83
424,85	4,07
425,07	3,36
425,28	-2,07
425,50	4,99
425,72	15,85
425,93	1,44
426,15	4,35
426,37	2,40
426,58	12,84
426,80	2,78
427,01	2,13
427,23	8,65
427,45	9,88
427,66	-3,37
427,88	-3,06
428,10	2,20
428,31	12,98
428,53	5,27
428,74	2,95
428,96	0,63
429,18	8,34
429,39	-2,86
429,61	5,13
429,82	5,30
430,04	1,75
430,26	-3,03
430,47	3,12
430,69	1,21
430,90	10,69
431,12	3,97
431,34	3,56
431,55	1,85
431,77	8,85
431,98	9,29
432,20	4,28
432,41	-0,81
432,63	17,25
432,85	-1,08
433,06	4,93
433,28	1,61
433,49	8,27
433,71	2,57
433,92	7,59
434,14	-0,67
434,35	5,40
434,57	2,78
434,79	3,32
435,00	1,48
435,22	9,67
435,43	5,81
435,65	11,21
435,86	3,12
436,08	8,17
436,29	4,65
436,51	9,19
436,72	-7,77
436,94	1,82
437,16	0,11
437,37	8,44
437,59	1,07
437,80	8,03
438,02	7,04
438,23	12,30
438,45	2,23
438,66	11,85
438,88	4,93
439,09	4,58
439,31	-1,53
439,52	8,65
439,74	7,62
439,95	12,13
440,17	0,69
440,38	8,99
440,60	-0,19
440,81	4,41
441,03	-5,72
441,24	3,59
441,46	5,51
441,67	2,74
441,89	-0,09
442,10	0,01
442,32	1,03
442,53	7,32
442,75	6,87
442,96	11,38
443,18	-1,25
443,39	4,82
443,61	13,12
443,82	3,94
444,04	1,24
444,25	10,25
444,46	2,09
444,68	1,07
444,89	-5,04
445,11	10,69
445,32	-0,94
445,54	3,53
445,75	-2,11
445,97	10,39
446,18	10,28
446,40	3,08
446,61	2,40
446,82	9,60
447,04	-5,04
447,25	-3,27
447,47	3,01
447,68	4,72
447,90	0,28
448,11	7,21
448,32	2,02
448,54	4,00
448,75	-0,88
448,97	11,79
449,18	-3,27
449,40	9,36
449,61	4,35
449,82	8,51
450,04	2,98
450,25	2,78
450,47	1,07
450,68	9,40
450,89	6,84
451,11	6,26
451,32	3,15
451,54	13,87
451,75	8,95
451,96	14,18
452,18	5,92
452,39	9,16
452,61	-3,50
452,82	7,08
453,03	6,80
453,25	11,96
453,46	9,60
453,68	5,47
453,89	2,30
454,10	2,95
454,32	11,17
454,53	16,09
454,74	3,80
454,96	11,00
455,17	4,17
455,39	9,64
455,60	1,92
455,81	6,29
456,03	2,71
456,24	2,16
456,45	7,08
456,67	7,55
456,88	8,68
457,09	14,86
457,31	15,92
457,52	4,76
457,73	3,08
457,95	7,04
458,16	10,42
458,37	8,61
458,59	4,62
458,80	1,34
459,01	5,27
459,23	13,15
459,44	1,24
459,65	8,95
459,87	-3,30
460,08	14,89
460,29	11,92
460,51	8,10
460,72	4,86
460,93	7,28
461,15	-0,74
461,36	18,14
461,57	10,01
461,79	12,54
462,00	4,00
462,21	14,35
462,42	5,78
462,64	12,88
462,85	0,28
463,06	10,25
463,28	-0,43
463,49	10,59
463,70	1,55
463,92	11,72
464,13	1,38
464,34	-3,40
464,55	2,23
464,77	4,79
464,98	7,38
465,19	23,26
465,40	11,14
465,62	6,50
465,83	12,61
466,04	6,77
466,26	2,78
466,47	7,42
466,68	0,32
466,89	11,75
467,11	9,16
467,32	12,30
467,53	6,77
467,74	12,91
467,96	3,80
468,17	15,81
468,38	9,67
468,59	9,70
468,81	10,01
469,02	13,53
469,23	6,56
469,44	13,25
469,66	6,02
469,87	13,56
470,08	9,29
470,29	0,80
470,50	12,33
470,72	17,45
470,93	4,82
471,14	2,16
471,35	6,12
471,57	7,52
471,78	9,02
471,99	15,34
472,20	2,78
472,41	17,42
472,63	7,93
472,84	17,62
473,05	9,57
473,26	19,53
473,47	13,80
473,69	16,91
473,90	13,42
474,11	27,56
474,32	23,73
474,53	36,23
474,75	59,23
474,96	92,17
475,17	208,12
475,38	361,96
475,59	907,09
475,80	1084,00
476,02	2391,73
476,23	2708,65
476,44	4314,23
476,65	5137,65
476,86	6805,65
477,08	7571,62
477,29	9734,93
477,50	11048,53
477,71	13039,56
477,92	14307,26
478,13	17190,18
478,34	18808,21
478,56	20990,46
478,77	23656,47
478,98	26041,30
479,19	28738,64
479,40	30080,61
479,61	33520,92
479,83	34976,93
480,04	37731,68
480,25	39374,53
480,46	42596,40
480,67	44942,41
480,88	45521,27
481,09	48738,90
481,30	49893,99
481,52	53650,31
481,73	53591,67
481,94	55434,05
482,15	57186,26
482,36	57270,64
482,57	57489,50
482,78	58949,80
482,99	59759,06
483,21	60619,95
483,42	60436,73
483,63	59404,18
483,84	57691,05
484,05	59150,02
484,26	57281,73
484,47	57531,72
484,68	55296,33
484,89	53049,06
485,10	50917,67
485,32	50602,59
485,53	47209,89
485,74	45567,55
485,95	42475,63
486,16	41464,14
486,37	38994,15
486,58	36927,55
486,79	33278,96
487,00	30769,03
487,21	27433,13
487,42	25858,55
487,63	23092,26
487,85	21232,43
488,06	18324,04
488,27	16510,26
488,48	14703,06
488,69	12885,28
488,90	10907,49
489,11	9540,99
489,32	7391,74
489,53	6475,86
489,74	4743,86
489,95	3980,41
490,16	2408,18
490,37	1869,94
490,58	857,73
490,79	549,65
491,00	214,02
491,21	138,93
491,42	80,77
491,63	46,29
491,84	35,10
492,06	31,99
492,27	30,32
492,48	25,03
492,69	23,15
492,90	15,51
493,11	25,10
493,32	11,38
493,53	17,45
493,74	18,61
493,95	22,85
494,16	13,29
494,37	13,94
494,58	14,65
494,79	16,39
495,00	14,38
495,21	25,20
495,42	12,16
495,63	29,88
495,84	7,55
496,05	21,92
496,26	12,78
496,47	15,98
496,68	7,69
496,89	19,30
497,10	16,91
497,31	13,77
497,52	11,58
497,73	15,81
497,94	21,17
498,15	6,97
498,36	13,94
498,57	17,11
498,78	10,35
498,98	13,87
499,19	6,29
499,40	10,05
499,61	12,37
499,82	12,61
500,03	6,09
500,24	14,18
500,45	6,09
500,66	5,71
500,87	9,40
501,08	18,58
501,29	11,14
501,50	10,46
501,71	2,09
501,92	20,32
502,13	6,60
502,34	7,59
502,55	12,20
502,76	17,66
502,97	7,90
503,17	10,01
503,38	8,85
503,59	17,15
503,80	1,58
504,01	15,27
504,22	8,03
504,43	19,57
504,64	3,29
504,85	19,43
505,06	7,90
505,27	15,00
505,48	8,07
505,68	15,68
505,89	14,14
506,10	26,74
506,31	10,22
506,52	16,97
506,73	11,96
506,94	7,01
507,15	12,54
507,36	20,18
507,57	16,80
507,77	9,88
507,98	8,82
508,19	13,56
508,40	12,13
508,61	18,14
508,82	15,64
509,03	15,20
509,24	16,46
509,45	15,17
509,65	6,29
509,86	20,59
510,07	11,65
510,28	20,80
510,49	7,76
510,70	15,64
510,91	13,73
511,11	18,72
511,32	7,01
511,53	7,79
511,74	9,53
511,95	18,95
512,16	6,84
512,37	4,58
512,57	13,32
512,78	13,90
512,99	11,31
513,20	16,53
513,41	5,27
513,62	19,57
513,82	7,83
514,03	14,07
514,24	1,31
514,45	4,35
514,66	12,20
514,87	15,75
515,07	4,96
515,28	12,57
515,49	7,69
515,70	7,90
515,91	6,02
516,11	10,11
516,32	5,44
516,53	9,84
516,74	12,54
516,95	7,79
517,16	9,02
517,36	11,10
517,57	5,81
517,78	9,06
517,99	0,63
518,20	6,70
518,40	16,05
518,61	9,50
518,82	9,67
519,03	7,62
519,23	2,06
519,44	-2,65
519,65	6,26
519,86	15,92
520,07	13,39
520,27	7,14
520,48	10,49
520,69	11,65
520,90	1,14
521,10	4,58
521,31	9,84
521,52	12,47
521,73	2,40
521,94	8,27
522,14	-7,57
522,35	7,59
522,56	6,97
522,77	7,59
522,97	11,04
523,18	2,43
523,39	2,09
523,60	11,99
523,80	5,95
524,01	9,67
524,22	10,80
524,43	19,53
524,63	1,38
524,84	14,11
525,05	1,85
525,25	8,34
525,46	2,91
525,67	4,93
525,88	1,79
526,08	18,48
526,29	0,25
526,50	-1,73
526,71	-3,40
526,91	2,91
527,12	7,21
527,33	12,16
527,53	2,20
527,74	7,45
527,95	6,80
528,16	5,98
528,36	10,11
528,57	6,84
528,78	6,43
528,98	8,99
529,19	7,08
529,40	10,59
529,60	7,52
529,81	1,99
530,02	-2,55
530,22	9,36
530,43	5,78
530,64	5,75
530,85	12,13
531,05	2,06
531,26	2,74
531,47	8,61
531,67	7,76
531,88	11,41
532,09	-0,81
532,29	8,03
532,50	-0,33
532,71	11,27
532,91	-2,45
533,12	1,79
533,33	14,31
533,53	8,61
533,74	1,92
533,95	4,99
534,15	8,78
534,36	9,98
534,56	3,46
534,77	13,05
534,98	-1,39
535,18	8,00
535,39	7,38
535,60	3,05
535,80	-2,14
536,01	3,42
536,22	5,92
536,42	5,03
536,63	-3,81
536,83	2,81
537,04	7,32
537,25	14,31
537,45	8,54
537,66	8,61
537,87	-1,35
538,07	13,02
538,28	9,33
538,48	5,88
538,69	9,57
538,90	4,96
539,10	3,05
539,31	8,89
539,51	5,27
539,72	-0,30
539,93	3,53
540,13	12,40
540,34	1,48
540,54	6,02
540,75	4,38
540,96	4,76
541,16	6,94
541,37	14,82
541,57	10,59
541,78	6,91
541,99	4,41
542,19	1,48
542,40	-1,12
542,60	2,64
542,81	3,80
543,01	11,17
543,22	3,94
543,43	11,68
543,63	5,68
543,84	9,33
544,04	11,10
544,25	14,69
544,45	3,08
544,66	-1,25
544,87	0,49
545,07	3,32
545,28	-4,77
545,48	10,22
545,69	0,90
545,89	11,34
546,10	3,90
546,30	7,04
546,51	-4,56
546,71	5,64
546,92	2,54
547,13	7,79
547,33	8,37
547,54	14,31
547,74	10,86
547,95	7,86
548,15	-0,81
548,36	15,17
548,56	0,52
548,77	-3,81
548,97	0,52
549,18	2,67
549,38	-2,72
549,59	6,46
549,79	-7,05
550,00	6,87
550,20	4,11
550,41	7,25
550,61	5,06
550,82	5,54
551,02	5,71
551,23	9,09
551,43	4,99
551,64	9,91
551,84	0,56
552,05	0,42
552,25	0,45
552,46	6,29
552,66	6,84
552,87	10,83
553,07	9,70
553,28	4,79
553,48	8,34
553,69	-0,33
553,89	8,65
554,10	7,04
554,30	4,99
554,51	4,11
554,71	-0,43
554,92	9,40
555,12	10,56
555,32	4,31
555,53	0,56
555,73	7,38
555,94	4,00
556,14	6,29
556,35	1,75
556,55	6,94
556,76	5,85
556,96	9,81
557,17	-4,53
557,37	14,41
557,57	2,71
557,78	9,84
557,98	1,51
558,19	10,35
558,39	2,60
558,60	7,49
558,80	2,78
559,00	6,53
559,21	1,31
559,41	5,51
559,62	-4,70
559,82	9,19
560,03	1,65
560,23	9,64
560,43	-0,40
560,64	4,04
560,84	-1,97
561,05	16,74
561,25	4,93
561,45	8,82
561,66	5,23
561,86	0,15
562,07	-0,30
562,27	2,81
562,47	1,07
562,68	7,90
562,88	-0,98
563,09	7,38
563,29	7,72
563,49	7,01
563,70	-2,17
563,90	8,99
564,11	2,13
564,31	9,81
564,51	3,01
564,72	8,31
564,92	4,45
565,12	5,27
565,33	-5,48
565,53	4,31
565,74	-2,14
565,94	-6,13
566,14	2,50
566,35	11,75
566,55	-4,39
566,75	19,43
566,96	6,09
567,16	10,59
567,36	8,34
567,57	3,19
567,77	2,78
567,98	6,05
568,18	9,60
568,38	4,24
568,59	-5,18
568,79	7,69
568,99	7,32
569,20	11,45
569,40	0,42
569,60	9,02
569,81	5,68
570,01	5,30
570,21	0,63
570,42	8,78
570,62	9,94
570,82	10,52
571,03	3,05
571,23	3,97
571,43	0,69
571,63	5,13
571,84	-5,35
572,04	14,59
572,24	7,01
572,45	1,96
572,65	-1,93
572,85	3,05
573,06	2,71
573,26	14,79
573,46	6,15
573,67	8,27
573,87	0,86
574,07	11,21
574,27	-0,19
574,48	5,54
574,68	2,57
574,88	8,99
575,09	-6,41
575,29	1,03
575,49	8,41
575,69	3,94
575,90	-1,01
576,10	5,03
576,30	1,85
576,51	4,86
576,71	0,22
576,91	14,79
577,11	3,90
577,32	17,04
577,52	4,41
577,72	9,94
577,92	-0,40
578,13	7,59
578,33	5,30
578,53	9,91
578,73	2,13
578,94	8,68
579,14	6,67
579,34	10,83
579,54	-1,83
579,75	10,52
579,95	3,97
580,15	-0,84
580,35	12,33
580,56	2,02
580,76	2,16
580,96	9,33
581,16	4,07
581,37	3,05
581,57	2,06
581,77	2,37
581,97	-2,86
582,17	1,03
582,38	0,08
582,58	4,38
582,78	-1,83
582,98	3,83
583,19	-3,57
583,39	14,31
583,59	-4,02
583,79	4,79
583,99	-2,79
584,20	11,92
584,40	-0,06
584,60	9,06
584,80	2,78
585,00	7,52
585,21	3,29
585,41	12,74
585,61	-6,20
585,81	2,54
586,01	3,66
586,22	5,16
586,42	2,81
586,62	11,04
586,82	16,63
587,02	14,93
587,22	-2,28
587,43	17,18
587,63	1,96
587,83	12,06
588,03	2,95
588,23	1,03
588,43	1,17
588,64	11,34
588,84	2,06
589,04	4,17
589,24	-0,57
589,44	9,23
589,64	5,47
589,85	3,15
590,05	-2,31
590,25	2,16
590,45	10,11
590,65	11,41
590,85	4,04
591,05	0,93
591,26	4,86
591,46	5,16
591,66	1,48
591,86	6,33
592,06	5,06
592,26	9,16
592,46	6,02
592,67	7,59
592,87	0,32
593,07	15,88
593,27	1,31
593,47	9,98
593,67	-2,17
593,87	3,63
594,07	7,62
594,28	2,78
594,48	14,21
594,68	15,27
594,88	7,86
595,08	10,18
595,28	5,68
595,48	5,81
595,68	8,37
595,88	2,98
596,08	-3,06
596,29	4,99
596,49	0,73
596,69	4,28
596,89	1,79
597,09	1,72
597,29	5,78
597,49	9,67
597,69	2,02
597,89	10,86
598,09	4,89
598,29	3,08
598,50	-0,23
598,70	5,92
598,90	-0,23
599,10	7,62
599,30	11,48
599,50	7,90
599,70	-8,01
599,90	13,66
600,10	-1,32
600,30	4,82
600,50	-3,57
600,70	9,09
600,90	-1,53
601,10	18,03
601,30	0,69
601,50	-1,53
601,71	-5,86
601,91	2,88
602,11	2,91
602,31	8,13
602,51	9,81
602,71	7,18
602,91	5,30
603,11	2,33
603,31	3,83
603,51	19,98
603,71	4,89
603,91	8,13
604,11	1,10
604,31	7,86
604,51	1,14
604,71	10,01
604,91	8,00
605,11	2,60
605,31	-1,76
605,51	9,74
605,71	3,36
605,91	2,20
606,11	6,05
606,31	12,47
606,51	-0,40
606,71	4,93
606,91	-1,18
607,11	6,77
607,31	0,83
607,51	7,38
607,71	-3,40
607,91	5,85
608,11	5,71
608,31	-0,50
608,51	4,82
608,71	6,39
608,91	2,06
609,11	1,85
609,31	5,92
609,51	10,73
609,71	-0,54
609,91	3,05
610,11	2,43
610,31	4,62
610,51	4,14
610,71	1,72
610,91	1,24
611,11	-1,29
611,31	3,77
611,51	6,26
611,71	2,64
611,91	7,93
612,11	4,11
612,31	2,33
612,51	1,38
612,71	6,33
612,90	0,25
613,10	5,23
613,30	5,27
613,50	5,44
613,70	2,78
613,90	12,84
614,10	-1,87
614,30	8,00
614,50	4,52
614,70	3,53
614,90	3,66
615,10	3,66
615,30	7,21
615,50	6,29
615,70	-0,19
615,90	4,48
616,09	-10,67
616,29	8,10
616,49	7,14
616,69	12,47
616,89	2,88
617,09	7,90
617,29	-3,44
617,49	-3,50
617,69	-1,18
617,89	10,73
618,09	-5,86
618,28	1,72
618,48	3,80
618,68	8,54
618,88	5,03
619,08	17,45
619,28	-1,97
619,48	3,73
619,68	-0,19
619,88	7,08
620,08	5,16
620,27	4,96
620,47	-6,95
620,67	7,69
620,87	7,01
621,07	7,11
621,27	3,12
621,47	14,31
621,67	4,69
621,86	4,79
622,06	1,58
622,26	17,62
622,46	2,47
622,66	2,60
622,86	5,92
623,06	7,72
623,25	-1,49
623,45	3,19
623,65	7,35
623,85	0,45
624,05	-9,75
624,25	4,62
624,45	5,78
624,64	2,09
624,84	4,86
625,04	11,45
625,24	10,93
625,44	8,20
625,64	7,52
625,83	14,89
626,03	0,32
626,23	-0,19
626,43	5,44
626,63	15,37
626,83	4,35
627,02	5,71
627,22	-2,82
627,42	9,26
627,62	5,54
627,82	10,83
628,02	-6,00
628,21	13,19
628,41	0,52
628,61	6,46
628,81	8,75
629,01	4,96
629,20	-2,00
629,40	7,01
629,60	3,70
629,80	18,17
630,00	-0,30
630,19	11,00
630,39	4,21
630,59	6,87
630,79	4,11
630,99	1,79
631,18	-3,85
631,38	0,76
631,58	-0,40
631,78	2,91
631,98	-1,01
632,17	6,56
632,37	4,14
632,57	0,76
632,77	2,81
632,96	4,41
633,16	8,41
633,36	6,70
633,56	7,52
633,76	6,87
633,95	2,40
634,15	4,24
634,35	4,76
634,55	15,85
634,74	1,00
634,94	9,36
635,14	-1,08
635,34	9,19
635,53	-2,79
635,73	2,54
635,93	-4,67
636,13	13,12
636,32	9,43
636,52	10,25
636,72	8,95
636,92	5,98
637,11	3,53
637,31	4,72
637,51	-2,34
637,70	5,47
637,90	4,24
638,10	7,62
638,30	4,00
638,49	10,46
638,69	-0,47
638,89	2,95
639,09	4,65
639,28	6,84
639,48	6,91
639,68	7,32
639,87	0,59
640,07	10,05
640,27	-1,53
640,47	9,33
640,66	4,17
640,86	4,76
641,06	12,71
641,25	10,01
641,45	-2,45
641,65	5,61
641,84	-5,11
642,04	0,32
642,24	5,98
642,44	8,31
642,63	2,20
642,83	10,49
643,03	4,07
643,22	8,48
643,42	0,69
643,62	14,38
643,81	0,83
644,01	8,95
644,21	6,80
644,40	0,11
644,60	6,12
644,80	6,46
644,99	3,70
645,19	2,88
645,39	3,22
645,58	5,47
645,78	3,42
645,98	3,01
646,17	3,90
646,37	7,45
646,57	-2,69
646,76	4,89
646,96	7,32
647,16	7,28
647,35	-0,16
647,55	10,01
647,75	7,38
647,94	8,58
648,14	7,25
648,33	5,71
648,53	6,12
648,73	13,22
648,92	-0,13
649,12	2,33
649,32	-4,43
649,51	5,03
649,71	14,21
649,90	-1,97
650,10	8,34
650,30	5,71
650,49	-0,23
650,69	5,27
650,89	0,52
651,08	3,29
651,28	4,55
651,47	13,36
651,67	10,25
651,87	12,61
652,06	6,29
652,26	9,16
652,45	1,10
652,65	7,83
652,85	9,50
653,04	10,42
653,24	1,48
653,43	9,36
653,63	9,60
653,83	2,60
654,02	1,31
654,22	7,14
654,41	2,95
654,61	11,00
654,81	1,99
655,00	13,46
655,20	7,83
655,39	0,76
655,59	1,92
655,78	6,94
655,98	2,95
656,18	9,47
656,37	6,12
656,57	12,54
656,76	2,09
656,96	8,34
657,15	0,56
657,35	5,81
657,55	7,79
657,74	7,62
657,94	3,05
658,13	15,00
658,33	3,36
658,52	4,21
658,72	4,38
658,91	7,59
659,11	3,66
659,30	18,17
659,50	1,03
659,70	2,06
659,89	0,86
660,09	10,15
660,28	5,47
660,48	1,65
660,67	-2,62
660,87	11,24
661,06	-3,23
661,26	9,53
661,45	3,66
661,65	12,95
661,84	0,97
662,04	8,89
662,23	-2,04
662,43	11,27
662,62	7,14
662,82	5,10
663,01	4,58
663,21	-2,62
663,41	-1,53
663,60	15,98
663,80	3,94
663,99	5,27
664,19	3,53
664,38	10,56
664,58	-3,95
664,77	4,11
664,97	0,32
665,16	7,42
665,35	-1,42
665,55	2,88
665,74	-2,99
665,94	13,66
666,13	-2,79
666,33	2,71
666,52	-0,33
666,72	8,99
666,91	-2,75
667,11	6,43
667,30	6,91
667,50	4,65
667,69	0,86
667,89	9,70
668,08	3,94
668,28	4,79
668,47	-1,97
668,67	5,85
668,86	0,25
669,05	5,13
669,25	10,35
669,44	11,34
669,64	-4,97
669,83	4,79
670,03	-1,18
670,22	10,42
670,42	6,36
670,61	1,07
670,81	0,63
671,00	16,70
671,19	-4,63
671,39	8,61
671,58	0,66
671,78	3,32
671,97	0,11
672,17	14,59
672,36	0,28
672,55	8,61
672,75	1,72
672,94	10,25
673,14	3,46
673,33	-2,92
673,53	2,26
673,72	15,37
673,91	-2,58
674,11	9,53
674,30	4,65
674,50	5,61
674,69	2,91
674,88	2,02
675,08	1,72
675,27	9,74
675,47	-1,87
675,66	5,20
675,85	-0,71
676,05	9,98
676,24	6,91
676,44	9,26
676,63	-0,40
676,82	6,33
677,02	14,04
677,21	-1,56
677,41	-1,56
677,60	11,89
677,79	3,97
677,99	3,39
678,18	-7,19
678,37	9,06
678,57	4,93
678,76	15,20
678,96	5,20
679,15	-3,06
679,34	11,89
679,54	0,80
679,73	0,52
679,92	2,95
680,12	2,81
680,31	0,86
680,51	0,86
680,70	6,70
680,89	5,54
681,09	4,52
681,28	4,93
681,47	15,54
681,67	6,39
681,86	-0,06
682,05	2,06
682,25	5,27
682,44	7,35
682,63	9,47
682,83	-1,76
683,02	6,33
683,21	7,08
683,41	11,27
683,60	6,84
683,79	-0,64
683,99	5,16
684,18	0,59
684,37	2,06
684,57	8,78
684,76	3,39
684,95	10,76
685,15	0,59
685,34	10,11
685,53	3,87
685,73	11,31
685,92	3,29
686,11	11,58
686,31	-1,90
686,50	9,06
686,69	-2,89
686,88	8,75
687,08	5,64
687,27	12,06
687,46	8,20
687,66	4,76
687,85	6,94
688,04	1,68
688,24	2,81
688,43	8,24
688,62	6,33
688,81	8,13
689,01	-1,42
689,20	-2,00
689,39	-3,06
689,59	11,51
689,78	0,69
689,97	16,97
690,16	-3,78
690,36	9,23
690,55	3,66
690,74	1,44
690,93	3,66
691,13	9,40
691,32	-0,40
691,51	6,46
691,70	4,76
691,90	7,76
692,09	-1,42
692,28	13,63
692,48	-3,03
692,67	11,45
692,86	9,81
693,05	10,32
693,25	0,45
693,44	9,23
693,63	7,35
693,82	7,25
694,01	-1,22
694,21	7,45
694,40	4,24
694,59	-1,73
694,78	4,00
694,98	-1,15
695,17	1,38
695,36	3,49
695,55	4,48
695,75	1,75
695,94	1,79
696,13	8,71
696,32	0,39
696,51	11,31
696,71	4,72
696,90	9,36
697,09	0,42
697,28	7,52
697,48	-2,55
697,67	11,55
697,86	-0,81
698,05	15,47
698,24	-5,45
698,44	3,29
698,63	-7,67
698,82	5,57
699,01	1,38
699,20	6,05
699,40	-5,31
699,59	8,34
699,78	7,32
699,97	7,42
700,16	4,41
700,36	10,63
700,55	1,96
700,74	10,39
700,93	-1,12
701,12	9,67
701,31	6,02
701,51	11,38
701,70	8,61
701,89	11,14
702,08	8,13
702,27	9,64
702,46	3,59
702,66	8,41
702,85	-4,73
703,04	8,48
703,23	-0,19
703,42	5,71
703,61	10,39
703,81	12,61
704,00	-3,30
704,19	4,72
704,38	7,62
704,57	9,84
704,76	1,82
704,96	9,40
705,15	-3,61
705,34	-0,84
705,53	-3,78
705,72	5,30
705,91	7,28
706,10	5,51
706,30	9,33
706,49	3,42
706,68	6,50
706,87	-0,84
707,06	-2,45
707,25	5,20
707,44	9,19
707,63	3,08
707,83	3,53
708,02	0,83
708,21	9,64
708,40	12,78
708,59	2,98
708,78	12,40
708,97	0,69
709,16	10,01
709,35	9,16
709,55	12,81
709,74	3,08
709,93	6,97
710,12	3,59
710,31	5,95
710,50	-1,46
710,69	8,37
710,88	-4,77
711,07	7,49
711,26	-1,46
711,46	0,28
711,65	1,55
711,84	2,64
712,03	1,03
712,22	6,53
712,41	-5,14
712,60	9,16
712,79	0,28
712,98	7,62
713,17	2,23
713,36	12,30
713,55	4,55
713,75	9,94
713,94	1,14
714,13	9,43
714,32	5,40
714,51	3,29
714,70	3,83
714,89	6,53
715,08	6,80
715,27	6,91
715,46	5,03
715,65	-3,64
715,84	-0,06
716,03	6,02
716,22	-0,16
716,41	5,81
716,60	3,22
716,79	6,70
716,99	0,66
717,18	3,01
717,37	-2,45
717,56	17,08
717,75	0,59
717,94	11,89
718,13	9,12
718,32	11,68
718,51	5,47
718,70	-2,52
718,89	1,38
719,08	2,37
719,27	-0,23
719,46	9,29
719,65	9,88
719,84	-3,64
720,03	-2,82
720,22	0,45
720,41	3,22
720,60	9,70
720,79	-3,68
720,98	3,87
721,17	2,26
721,36	-3,95
721,55	5,54
721,74	7,04
721,93	1,82
722,12	3,56
722,31	-7,40
722,50	12,50
722,69	-2,00
722,88	0,15
723,07	4,52
723,26	7,28
723,45	8,61
723,64	8,92
723,83	7,49
724,02	3,15
724,21	-0,94
724,40	7,32
724,59	0,39
724,78	7,76
724,97	4,89
725,16	6,46
725,35	-2,17
725,54	10,63
725,73	2,47
725,92	4,72
726,11	-4,73
726,30	9,84
726,49	1,00
726,68	4,28
726,87	-3,27
727,06	7,38
727,25	2,47
727,43	2,43
727,62	2,30
727,81	12,91
728,00	-3,88
728,19	11,31
728,38	0,45
728,57	-0,77
728,76	3,49
728,95	3,46
729,14	15,61
729,33	7,25
729,52	-3,81
729,71	10,28
729,90	13,32
730,09	2,26
730,28	8,34
730,47	9,43
730,65	-2,31
730,84	2,98
731,03	9,43
731,22	5,16
731,41	-5,31
731,60	9,02
731,79	2,40
731,98	8,17
732,17	3,97
732,36	8,92
732,55	6,60
732,74	1,89
732,92	4,76
733,11	13,77
733,30	-2,65
733,49	1,38
733,68	2,71
733,87	7,62
734,06	-1,12
734,25	1,07
734,44	12,26
734,63	3,22
734,81	2,13
735,00	12,30
735,19	-8,22
735,38	3,73
735,57	12,54
735,76	10,28
735,95	3,32
736,14	6,73
736,33	-1,39
736,51	-2,38
736,70	2,16
736,89	0,52
737,08	3,15
737,27	1,10
737,46	-3,98
737,65	8,17
737,83	12,44
738,02	11,58
738,21	1,58
738,40	5,75
738,59	2,64
738,78	8,41
738,97	7,42
739,16	7,96
739,34	9,77
739,53	3,39
739,72	7,32
739,91	2,47
740,10	0,39
740,29	7,38
740,47	5,54
740,66	5,10
740,85	0,49
741,04	9,67
741,23	-2,82
741,42	8,51
741,60	2,43
741,79	13,56
741,98	-2,75
742,17	7,28
742,36	-1,12
742,55	3,70
742,73	0,32
742,92	11,55
743,11	5,92
743,30	7,79
743,49	-6,37
743,68	13,42
743,86	-1,46
744,05	11,21
744,24	1,24
744,43	3,19
744,62	7,11
744,80	8,24
744,99	1,65
745,18	3,15
745,37	-1,22
745,56	-2,62
745,74	-6,71
745,93	6,70
746,12	7,04
746,31	1,41
746,50	6,33
746,68	5,51
746,87	6,67
747,06	6,80
747,25	-1,83
747,44	15,34
747,62	2,81
747,81	2,43
748,00	3,77
748,19	13,56
748,37	-1,63
748,56	7,96
748,75	-10,26
748,94	15,13
749,13	0,28
749,31	5,54
749,50	-1,63
749,69	8,58
749,88	-0,09
750,06	7,49
750,25	9,09
750,44	8,92
750,63	6,15
750,81	4,72
751,00	3,19
751,19	11,55
751,38	-1,49
751,56	1,10
751,75	2,26
751,94	8,00
752,13	1,55
752,31	6,70
752,50	10,63
752,69	15,17
752,88	-4,39
753,06	12,09
753,25	1,17
753,44	16,29
753,63	-0,23
753,81	12,44
754,00	1,75
754,19	4,31
754,37	4,17
754,56	8,82
754,75	0,52
754,94	9,36
755,12	6,53
755,31	-3,61
755,50	-1,18
755,69	8,75
755,87	-1,93
756,06	1,82
756,25	6,70
756,43	13,94
756,62	1,17
756,81	5,54
756,99	1,44
757,18	2,71
757,37	4,31
757,56	4,35
757,74	3,77
757,93	7,32
758,12	7,28
758,30	7,86
758,49	-2,79
758,68	5,98
758,86	9,12
759,05	7,52
759,24	-3,71
759,42	8,24
759,61	-2,28
759,80	3,32
759,99	15,06
760,17	-0,09
760,36	2,88
760,55	4,07
760,73	2,09
760,92	4,82
761,11	-2,04
761,29	2,02
761,48	2,67
761,67	15,00
761,85	2,81
762,04	5,61
762,23	3,90
762,41	6,50
762,60	1,61
762,79	1,61
762,97	-2,28
763,16	3,39
763,34	5,30
763,53	4,52
763,72	5,47
763,90	8,71
764,09	3,66
764,28	8,58
764,46	1,58
764,65	6,02
764,84	-0,64
765,02	14,11
765,21	5,16
765,40	-3,13
765,58	0,39
765,77	13,29
765,95	8,82
766,14	1,55
766,33	3,29
766,51	1,89
766,70	-7,53
766,89	2,13
767,07	1,03
767,26	6,19
767,44	-0,30
767,63	11,41
767,82	-3,91
768,00	12,47
768,19	9,77
768,37	3,39
768,56	2,98
768,75	15,06
768,93	-2,79
769,12	9,12
769,30	0,08
769,49	11,31
769,68	6,80
769,86	9,33
770,05	7,35
770,23	10,83
770,42	-0,77
770,61	11,17
770,79	8,54
770,98	3,32
771,16	-3,91
771,35	6,56
771,54	4,41
771,72	4,82
771,91	-5,04
772,09	8,71
772,28	7,01
772,46	5,75
772,65	2,98
772,84	12,91
773,02	3,25
773,21	3,83
773,39	-9,38
773,58	7,21
773,76	-0,54
773,95	6,09
774,13	-0,23
774,32	9,67
774,51	-0,54
774,69	7,21
774,88	4,69
775,06	11,45
775,25	1,79
775,43	10,97
775,62	7,62
775,80	3,46
775,99	5,44
776,18	9,19
776,36	2,43
776,55	1,85
776,73	0,90
776,92	4,31
777,10	3,73
777,29	6,91
777,47	0,93
777,66	3,73
777,84	2,30
778,03	9,60
778,21	2,09
778,40	13,02
778,58	0,93
778,77	11,96
778,95	5,03
779,14	5,47
779,33	-0,47
779,51	6,97
779,70	5,75
779,88	7,11
780,07	-4,90
780,25	12,13
780,44	1,85
780,62	4,07
780,81	-2,24
780,99	7,21
781,18	4,82
781,36	11,17
781,55	-0,88
781,73	-0,60
781,92	-5,08
782,10	6,50
782,29	-1,56
782,47	7,38
782,66	1,10
782,84	3,80
783,03	-2,24
783,21	9,47
783,39	1,07
783,58	0,11
783,76	1,27
783,95	0,11
784,13	-1,80
784,32	10,32
784,50	3,77
784,69	5,98
784,87	0,25
785,06	10,11
785,24	2,26
785,43	2,43
785,61	0,52
785,80	2,02
785,98	-7,29
786,17	8,20
786,35	-4,63
786,53	10,93
786,72	-4,84
786,90	9,23
787,09	-5,28
787,27	2,98
787,46	3,29
787,64	4,35
787,83	4,82
788,01	8,10
788,19	4,79
788,38	4,65
788,56	-3,74
788,75	4,76
788,93	0,22
789,12	12,20
789,30	-0,36
789,49	2,50
789,67	3,80
789,85	6,43
790,04	1,07
790,22	6,22
790,41	2,16
790,59	7,86
790,77	9,19
790,96	4,17
791,14	0,69
791,33	11,27
791,51	-0,23
791,70	9,84
791,88	0,11
792,06	1,07
792,25	2,91
792,43	12,50
792,62	11,10
792,80	6,36
792,98	2,78
793,17	8,00
793,35	1,48
793,54	7,14
793,72	0,28
793,90	10,22
794,09	-1,87
794,27	12,50
794,46	-3,61
794,64	16,36
794,82	3,59
795,01	8,37
795,19	12,26
795,37	6,33
795,56	-0,91
795,74	3,15
795,93	-0,43
796,11	10,05
796,29	-0,36
796,48	-1,56
796,66	3,29
796,84	2,81
797,03	0,76
797,21	10,80
797,40	2,95
797,58	-1,35
797,76	-0,02
797,95	7,32
798,13	12,84
798,31	3,42
798,50	-4,32
798,68	3,49
798,86	5,81
799,05	-1,56
799,23	8,27
799,42	2,30
799,60	-3,37
799,78	5,98
799,97	6,53
800,15	1,58
800,33	-2,55
800,52	6,97
800,70	7,08
800,88	-2,07
801,07	7,04
801,25	8,27
801,43	3,49
801,62	12,23
801,80	0,66
801,98	9,12
802,17	5,88
802,35	2,02
802,53	-5,38
802,72	5,40
802,90	5,20
803,08	1,85
803,26	-4,12
803,45	13,63
803,63	4,17
803,81	-0,64
804,00	5,47
804,18	10,76
804,36	-0,02
804,55	2,30
804,73	7,35
804,91	2,47
805,10	0,93
805,28	2,74
805,46	-0,43
805,64	13,42
805,83	-6,61
806,01	-0,50
806,19	-5,93
806,38	10,18
806,56	3,90
806,74	1,34
806,92	4,89
807,11	13,32
807,29	0,76
807,47	12,06
807,66	-2,52
807,84	8,00
808,02	-4,63
808,20	1,34
808,39	-1,35
808,57	3,42
808,75	5,64
808,94	2,23
809,12	0,22
809,30	14,35
809,48	-5,48
809,67	9,98
809,85	-1,12
810,03	13,29
810,21	5,88
810,40	13,83
810,58	7,79
810,76	3,97
810,94	-2,79
811,13	7,62
811,31	2,57
811,49	7,04
811,67	-1,87
811,86	12,57
812,04	-6,58
812,22	7,76
812,40	9,40
812,59	5,06
812,77	-7,05
812,95	10,35
813,13	-0,43
813,32	4,58
813,50	6,05
813,68	0,15
813,86	4,17
814,04	6,60
814,23	6,05
814,41	7,04
814,59	-7,67
814,77	6,60
814,96	0,86
815,14	9,70
815,32	-2,28
815,50	10,28
815,68	3,56
815,87	5,92
816,05	1,75
816,23	5,40
816,41	7,55
816,59	5,57
816,78	-8,86
816,96	4,86
817,14	14,14
817,32	1,72
817,50	2,57
817,69	-1,29
817,87	1,68
818,05	6,53
818,23	-11,63
818,41	13,42
818,60	2,60
818,78	10,22
818,96	3,01
819,14	2,91
819,32	-3,10
819,51	5,95
819,69	0,42
819,87	2,13
820,05	7,42
820,23	7,62
820,41	4,41
820,60	7,72
820,78	-0,50
820,96	6,73
821,14	-1,01
821,32	4,86
821,50	-4,32
821,69	4,65
821,87	1,07
822,05	8,41
822,23	-4,53
822,41	9,81
822,59	-1,05
822,78	1,38
822,96	5,71
823,14	11,89
823,32	-9,58
823,50	6,87
823,68	3,56
823,86	10,86
824,05	1,55
824,23	4,24
824,41	3,01
824,59	5,34
824,77	5,16
824,95	10,86
825,13	6,22
825,32	3,42
825,50	0,35
825,68	8,85
825,86	-6,88
826,04	5,30
826,22	2,67
826,40	20,25
826,58	-0,40
826,77	8,82
826,95	2,16
827,13	8,13
827,31	-2,45
827,49	9,74
827,67	4,79
827,85	13,02
828,03	4,21
828,22	9,94
828,40	0,49
828,58	4,55
828,76	0,45
828,94	9,60
829,12	17,18
829,30	11,55
829,48	4,11
829,66	6,43
829,84	2,88
830,03	6,50
830,21	3,66
830,39	15,37
830,57	5,98
830,75	8,54
830,93	-7,43
831,11	14,45
831,29	-2,24
831,47	9,94
831,65	2,50
831,83	6,22
832,02	-5,42
832,20	9,33
832,38	3,25
832,56	10,93
832,74	-1,25
832,92	4,55
833,10	-6,20
833,28	9,33
833,46	4,11
833,64	2,37
833,82	-1,56
834,00	4,00
834,18	-1,46
834,36	7,32
834,54	-4,60
834,73	18,20
834,91	-8,49
835,09	9,94
835,27	-1,18
835,45	10,46
835,63	5,75
835,81	9,57
835,99	4,86
836,17	9,60
836,35	-0,60
836,53	1,55
836,71	3,01
836,89	4,31
837,07	1,03
837,25	10,52
837,43	-4,02
837,61	6,70
837,79	-3,30
837,97	9,50
838,15	4,58
838,33	6,77
838,51	-0,40
838,69	15,00
838,87	1,31
839,05	3,29
839,23	1,55
839,41	6,53
839,59	-1,25
839,78	9,33
839,96	10,76
840,14	5,06
840,32	3,12
840,50	10,76
840,68	2,54
840,86	3,22
841,04	0,11
841,22	4,93
841,40	1,65
841,58	5,98
841,76	-6,10
841,94	-0,43
842,12	-1,83
842,30	8,65
842,48	10,05
842,66	8,20
842,84	2,43
843,02	10,11
843,20	-5,62
843,38	11,17
843,55	10,32
843,73	14,18
843,91	13,49
844,09	10,08
844,27	15,88
844,45	8,71
844,63	-2,65
844,81	13,22
844,99	5,37
845,17	8,07
845,35	-4,36
845,53	9,74
845,71	4,72
845,89	0,32
846,07	8,10
846,25	3,29
846,43	7,66
846,61	3,59
846,79	1,96
846,97	3,66
847,15	8,31
847,33	5,68
847,51	-0,88
847,69	6,19
847,87	4,35
848,05	-1,29
848,23	-0,81
848,41	9,06
848,58	4,93
848,76	9,64
848,94	1,82
849,12	6,36
849,30	0,45
849,48	8,34
849,66	-0,26
849,84	7,25
850,02	9,70
850,20	10,90
850,38	-9,89
850,56	6,26
850,74	-0,91
850,92	5,57
851,10	-0,36
851,27	-1,93
851,45	2,81
851,63	10,42
851,81	-1,97
851,99	0,76
852,17	-5,25
852,35	4,35
852,53	4,62
852,71	9,29
852,89	2,33
853,07	5,98
853,24	0,04
853,42	2,91
853,60	1,92
853,78	2,33
853,96	2,64
854,14	1,92
854,32	7,11
854,50	9,94
854,68	4,82
854,86	7,52
855,03	1,96
855,21	3,66
855,39	4,86
855,57	7,38
855,75	9,88
855,93	17,21
856,11	2,84
856,29	6,33
856,47	7,79
856,64	2,20
856,82	-4,60
857,00	11,24
857,18	7,14
857,36	10,73
857,54	6,05
857,72	4,76
857,90	0,80
858,07	9,19
858,25	-0,57
858,43	8,78
858,61	8,37
858,79	-7,94
858,97	3,19
859,15	12,57
859,32	6,29
859,50	10,01
859,68	4,31
859,86	9,84
860,04	2,30
860,22	6,94
860,40	12,64
860,57	6,60
860,75	4,45
860,93	14,82
861,11	1,58
861,29	8,31
861,47	3,49
861,64	13,22
861,82	-2,04
862,00	1,34
862,18	-0,33
862,36	9,67
862,54	1,24
862,71	4,65
862,89	0,56
863,07	5,85
863,25	-3,03
863,43	9,47
863,61	-3,71
863,78	2,54
863,96	6,67
864,14	6,29
864,32	1,65
864,50	5,44
864,67	6,26
864,85	10,18
865,03	3,29
865,21	9,94
865,39	0,76
865,57	4,07
865,74	5,64
865,92	-3,50
866,10	-1,05
866,28	4,35
866,46	4,04
866,63	2,30
866,81	-0,88
866,99	6,63
867,17	9,70
867,34	5,03
867,52	-0,64
867,70	7,18
867,88	-1,08
868,06	9,36
868,23	0,49
868,41	5,03
868,59	5,61
868,77	6,19
868,95	-4,60
869,12	1,96
869,30	7,49
869,48	13,19
869,66	8,58
869,83	1,58
870,01	1,89
870,19	14,28
870,37	5,85
870,55	7,21
870,72	5,03
870,90	2,37
871,08	4,07
871,26	10,05
871,43	0,01
871,61	8,51
871,79	2,02
871,97	7,76
872,14	-1,05
872,32	0,66
872,50	1,99
872,68	7,72
872,85	7,52
873,03	12,95
873,21	3,49
873,39	1,44
873,56	-0,09
873,74	5,44
873,92	-8,08
874,10	5,95
874,27	-0,84
874,45	7,21
874,63	1,89
874,80	-0,64
874,98	9,98
875,16	8,03
875,34	7,11
875,51	12,23
875,69	8,17
875,87	10,42
876,05	3,56
876,22	4,41
876,40	-12,21
876,58	13,53
876,75	-0,23
876,93	-0,88
877,11	4,45
877,29	-1,25
877,46	-4,12
877,64	0,90
877,82	1,72
877,99	1,14
878,17	3,15
878,35	7,42
878,52	0,04
878,70	6,12
878,88	-2,96
879,06	11,04
879,23	-2,24
879,41	-0,74
879,59	9,12
879,76	0,11
879,94	-4,19
880,12	0,32
880,29	-2,96
880,47	7,62
880,65	-0,94
880,82	7,52
881,00	2,57
881,18	12,09
881,36	7,55
881,53	10,35
881,71	-1,90
881,89	8,31
882,06	0,04
882,24	7,90
882,42	-2,45
882,59	9,98
882,77	9,98
882,95	2,20
883,12	3,56
883,30	8,00
883,48	-1,12
883,65	14,07
883,83	2,54
884,01	10,63
884,18	-6,82
884,36	5,88
884,54	5,78
884,71	7,69
884,89	1,21
885,06	12,26
885,24	3,25
885,42	0,49
885,59	7,11
885,77	6,73
885,95	3,77
886,12	3,15
886,30	3,77
886,48	0,69
886,65	7,42
886,83	14,86
887,01	-4,12
887,18	3,36
887,36	5,85
887,53	2,98
887,71	0,52
887,89	4,14
888,06	3,29
888,24	6,87
888,42	3,77
888,59	9,47
888,77	1,17
888,94	5,61
889,12	1,07
889,30	13,05
889,47	-2,21
889,65	6,15
889,82	-7,29
890,00	11,92
890,18	5,27
890,35	3,25
890,53	4,82
890,71	2,81
890,88	1,82
891,06	4,38
891,23	1,51
891,41	-0,16
891,59	5,23
891,76	9,36
891,94	2,64
892,11	10,05
892,29	-6,44
892,46	9,16
892,64	1,34
892,82	6,02
892,99	1,92
893,17	14,04
893,34	6,39
893,52	10,05
893,70	-0,40
893,87	0,04
894,05	-0,50
894,22	4,52
894,40	7,96
894,57	-0,47
894,75	9,12
894,93	7,79
895,10	3,70
895,28	8,07
895,45	6,12
895,63	6,50
895,80	-5,31
895,98	15,71
896,16	5,23
896,33	5,06
896,51	5,23
896,68	11,21
896,86	7,25
897,03	13,29
897,21	4,31
897,38	1,24
897,56	2,50
897,74	15,71
897,91	6,84
898,09	-0,23
898,26	0,69
898,44	1,75
898,61	0,49
898,79	13,90
898,96	1,92
899,14	3,01
899,31	6,46
899,49	5,16
899,67	3,53
899,84	13,05
900,02	5,40
900,19	8,54
900,37	1,10
900,54	-2,45
900,72	-6,24
900,89	0,04
901,07	-9,03
901,24	5,40
901,42	0,28
901,59	-3,27
901,77	-5,01
901,94	11,79
902,12	0,83
902,29	11,48
902,47	3,56
902,64	10,22
902,82	-0,57
902,99	8,20
903,17	2,64
903,34	5,92
903,52	3,36
903,69	2,06
903,87	3,80
904,04	5,61
904,22	7,55
904,39	12,91
904,57	0,15
904,74	4,35
904,92	0,86
905,09	13,63
905,27	1,03
905,44	10,35
905,62	2,43
905,79	6,56
905,97	2,50
906,14	11,04
906,32	4,41
906,49	10,15
906,67	2,60
906,84	0,63
907,02	6,36
907,19	6,67
907,37	0,08
907,54	4,69
907,72	-1,59
907,89	0,28
908,06	-0,16
908,24	4,62
908,41	4,11
908,59	-2,38
908,76	1,21
908,94	9,26
909,11	2,43
909,29	7,42
909,46	0,01
909,64	14,69
909,81	2,57
909,99	6,15
910,16	-3,64
910,33	11,48
910,51	-5,86
910,68	3,77
910,86	5,23
911,03	8,78
911,21	-8,28
911,38	11,51
911,56	0,01
911,73	0,97
911,90	8,27
912,08	5,03
912,25	0,35
912,43	9,06
912,60	7,66
912,78	1,58
912,95	6,02
913,12	9,29
913,30	-0,06
913,47	5,98
913,65	7,59
913,82	-1,53
914,00	0,32
914,17	1,10
914,34	0,93
914,52	4,31
914,69	12,37
914,87	8,95
915,04	0,28
915,21	12,26
915,39	-6,27
915,56	9,43
915,74	8,31
915,91	14,45
916,08	6,05
916,26	2,40
916,43	-3,44
916,61	5,61
916,78	9,12
916,95	7,76
917,13	-0,91
917,30	2,57
917,48	10,97
917,65	2,33
917,82	3,12
918,00	6,39
918,17	-2,07
918,35	4,62
918,52	0,11
918,69	1,58
918,87	1,00
919,04	4,62
919,22	-6,06
919,39	4,00
919,56	7,76
919,74	9,64
919,91	2,33
920,08	16,63
920,26	0,69
920,43	10,15
920,61	-2,58
920,78	7,93
920,95	7,96
921,13	7,76
921,30	2,47
921,47	13,12
921,65	4,93
921,82	5,68
921,99	-2,92
922,17	14,93
922,34	4,31
922,51	-2,82
922,69	-1,05
922,86	6,26
923,04	-0,09
923,21	3,77
923,38	-0,94
923,56	9,12
923,73	0,18
923,90	4,48
924,08	-1,53
924,25	3,08
924,42	-0,77
924,60	13,77
924,77	4,41
924,94	5,13
925,12	6,33
925,29	0,22
925,46	1,48
925,64	11,96
925,81	1,31
925,98	8,82
926,16	6,56
926,33	-2,75
926,50	-6,27
926,68	8,65
926,85	4,04
927,02	4,89
927,19	1,99
927,37	3,94
927,54	0,42
927,71	13,36
927,89	3,15
928,06	7,96
928,23	6,33
928,41	8,68
928,58	-2,82
928,75	11,58
928,93	1,79
929,10	6,33
929,27	-0,91
929,44	8,37
929,62	7,08
929,79	1,10
929,96	-0,84
930,14	1,61
930,31	5,81
930,48	8,71
930,66	1,58
930,83	5,61
931,00	-5,01
931,17	-2,69
931,35	1,27
931,52	13,25
931,69	-3,91
931,87	8,85
932,04	-4,80
932,21	11,75
932,38	2,23
932,56	7,38
932,73	-7,19
932,90	9,98
933,07	6,46
933,25	0,90
933,42	-4,60
933,59	8,00
933,77	5,92
933,94	6,84
934,11	4,41
934,28	5,13
934,46	-4,05
934,63	5,10
934,80	4,11
934,97	0,32
935,15	-9,21
935,32	7,01
935,49	-9,34
935,66	8,44
935,84	1,82
936,01	-2,24
936,18	6,94
936,35	8,99
936,53	5,68
936,70	3,56
936,87	-3,13
937,04	3,42
937,22	4,69
937,39	10,22
937,56	-0,19
937,73	9,19
937,91	-8,35
938,08	8,00
938,25	3,32
938,42	11,38
938,59	0,97
938,77	8,41
938,94	-2,34
939,11	3,05
939,28	3,87
939,46	3,46
939,63	-2,07
939,80	5,23
939,97	0,80
940,14	13,39
940,32	-3,23
940,49	9,57
940,66	2,06
940,83	3,36
941,00	1,41
941,18	10,39
941,35	-1,76
941,52	9,60
941,69	-6,44
941,87	2,16
942,04	4,62
942,21	9,09
942,38	3,22
942,55	1,72
942,73	6,43
942,90	7,25
943,07	5,68
943,24	-0,30
943,41	5,20
943,58	8,92
943,76	3,77
943,93	16,84
944,10	3,66
944,27	6,05
944,44	-5,31
944,62	15,54
944,79	-0,33
944,96	12,23
945,13	-3,23
945,30	4,55
945,47	9,88
945,65	2,88
945,82	6,94
945,99	4,31
946,16	1,31
946,33	5,03
946,50	6,09
946,68	6,87
946,85	1,92
947,02	-2,86
947,19	2,33
947,36	10,11
947,53	1,79
947,71	8,24
947,88	9,40
948,05	10,32
948,22	0,86
948,39	6,29
948,56	6,39
948,74	4,86
948,91	3,87
949,08	4,24
949,25	-1,35
949,42	-2,69
949,59	-0,19
949,76	2,06
949,94	-1,53
950,11	-1,05
950,28	-4,05
950,45	2,13
950,62	-1,76
950,79	3,46
950,96	4,52
951,14	-0,19
951,31	-0,13
951,48	9,67
951,65	0,49
951,82	7,11
951,99	1,14
952,16	3,15
952,33	-5,25
952,51	14,69
952,68	0,76
952,85	1,61
953,02	0,86
953,19	3,01
953,36	3,25
953,53	1,34
953,70	4,35
953,87	14,18
954,05	-5,93
954,22	4,69
954,39	6,46
954,56	9,81
954,73	-0,74
954,90	1,55
955,07	1,17
955,24	-1,73
955,41	0,22
955,58	7,18
955,76	0,66
955,93	5,61
956,10	-2,79
956,27	2,33
956,44	6,46
956,61	6,70
956,78	-1,59
956,95	10,69
957,12	0,25
957,29	3,53
957,46	4,76
957,64	6,60
957,81	0,28
957,98	1,68
958,15	5,06
958,32	3,36
958,49	-4,29
958,66	0,32
958,83	2,26
959,00	4,93
959,17	-5,21
959,34	5,54
959,51	11,04
959,68	18,03
959,85	2,54
960,03	4,79
960,20	0,11
960,37	13,25
960,54	6,46
960,71	8,27
960,88	8,48
961,05	3,73
961,22	8,10
961,39	10,59
961,56	11,41
961,73	6,19
961,90	-1,87
962,07	9,53
962,24	3,77
962,41	7,25
962,58	8,41
962,75	5,95
962,92	8,75
963,09	9,88
963,26	2,02
963,44	12,13
963,61	1,48
963,78	1,34
963,95	6,39
964,12	0,97
964,29	-3,61
964,46	6,22
964,63	-1,70
964,80	13,05
964,97	1,65
965,14	4,76
965,31	10,18
965,48	11,14
965,65	7,59
965,82	-1,83
965,99	0,59
966,16	6,29
966,33	-4,22
966,50	3,90
966,67	12,91
966,84	6,39
967,01	-2,48
967,18	5,47
967,35	2,37
967,52	11,07
967,69	1,27
967,86	10,46
968,03	2,64
968,20	2,33
968,37	4,96
968,54	11,07
968,71	0,76
968,88	12,23
969,05	1,82
969,22	8,68
969,39	4,93
969,56	7,52
969,73	-6,30
969,90	16,22
970,07	0,69
970,24	3,15
970,41	-3,44
970,58	5,57
970,75	-1,25
970,92	10,52
971,09	1,34
971,26	7,59
971,43	3,94
971,60	7,83
971,77	1,51
971,94	2,20
972,11	2,02
972,28	2,13
972,45	-1,32
972,62	2,40
972,79	2,30
972,96	3,46
973,12	1,58
973,29	3,80
973,46	3,32
973,63	4,62
973,80	-0,91
973,97	8,13
974,14	1,51
974,31	9,88
974,48	5,30
974,65	10,69
974,82	2,20
974,99	14,93
975,16	-4,05
975,33	8,65
975,50	5,78
975,67	3,25
975,84	3,80
976,01	-0,09
976,18	4,11
976,35	-0,81
976,51	5,13
976,68	5,75
976,85	-0,40
977,02	6,33
977,19	-6,20
977,36	8,17
977,53	-3,54
977,70	0,76
977,87	0,76
978,04	4,79
978,21	2,91
978,38	3,56
978,55	7,96
978,72	6,94
978,88	10,83
979,05	15,17
979,22	0,25
979,39	7,32
979,56	-6,99
979,73	-2,52
979,90	4,48
980,07	8,41
980,24	-1,83
980,41	2,26
980,58	2,67
980,75	1,61
980,91	7,01
981,08	4,17
981,25	2,71
981,42	11,38
981,59	-0,02
981,76	17,49
981,93	3,53
982,10	9,43
982,27	-1,63
982,44	4,99
982,60	1,51
982,77	4,11
982,94	2,02
983,11	3,87
983,28	-3,16
983,45	11,34
983,62	0,69
983,79	7,86
983,95	1,82
984,12	10,69
984,29	-0,26
984,46	13,19
984,63	-3,10
984,80	7,86
984,97	2,95
985,14	6,29
985,30	2,16
985,47	13,19
985,64	0,49
985,81	2,81
985,98	2,84
986,15	1,07
986,32	0,83
986,49	10,11
986,65	2,47
986,82	2,60
986,99	3,53
987,16	4,99
987,33	0,18
987,50	8,31
987,67	-2,17
987,83	2,88
988,00	4,82
988,17	12,71
988,34	-1,05
988,51	7,45
988,68	-1,66
988,84	4,38
989,01	7,25
989,18	10,52
989,35	6,39
989,52	3,59
989,69	-0,91
989,86	5,13
990,02	-9,58
990,19	5,10
990,36	4,62
990,53	12,30
990,70	-5,76
990,87	4,00
991,03	-0,94
991,20	6,97
991,37	3,15
991,54	2,30
991,71	-6,10
991,87	3,32
992,04	3,36
992,21	9,81
992,38	7,32
992,55	6,94
992,72	3,42
992,88	0,42
993,05	1,65
993,22	8,75
993,39	-4,77
993,56	11,21
993,72	-2,07
993,89	11,00
994,06	7,11
994,23	11,99
994,40	4,76
994,56	2,64
994,73	-1,46
994,90	10,76
995,07	-0,40
995,24	7,11
995,40	-4,43
995,57	5,88
995,74	-4,53
995,91	18,31
996,08	-5,79
996,24	7,49
996,41	5,92
996,58	12,23
996,75	-3,64
996,92	4,69
997,08	1,89
997,25	12,20
997,42	-4,73
997,59	13,87
997,75	5,81
997,92	9,94
998,09	0,76
998,26	7,69
998,43	7,35
998,59	7,08
998,76	-1,25
998,93	6,15
999,10	6,19
999,26	7,93
999,43	0,32
999,60	8,92
999,77	6,77
999,93	-0,74
1000,10	-0,40
1000,27	10,39
1000,44	4,35
1000,60	2,98
1000,77	-4,84
1000,94	5,34
1001,11	5,57
1001,28	11,85
1001,44	4,99
1001,61	2,33
1001,78	-0,06
1001,95	7,52
1002,11	3,15
1002,28	4,72
1002,45	7,38
1002,61	7,11
1002,78	7,08
1002,95	8,75
1003,12	2,60
1003,28	9,16
1003,45	11,04
1003,62	3,70
1003,79	-0,19
1003,95	5,20
1004,12	4,04
1004,29	8,00
1004,46	0,25
1004,62	10,69
1004,79	1,07
1004,96	1,48
1005,12	7,86
1005,29	10,59
1005,46	-1,83
1005,63	7,11
1005,79	0,18
1005,96	1,44
1006,13	-3,16
1006,29	9,53
1006,46	3,77
1006,63	8,82
1006,80	5,23
1006,96	6,60
1007,13	3,36
1007,30	9,77
1007,46	2,91
1007,63	6,77
1007,80	-0,30
1007,97	5,95
1008,13	4,55
1008,30	4,17
1008,47	-0,13
1008,63	4,76
1008,80	8,24
1008,97	4,96
1009,13	4,93
1009,30	9,88
1009,47	-3,61
1009,64	9,29
1009,80	12,71
1009,97	2,74
1010,14	6,67
1010,30	1,38
1010,47	-1,42
1010,64	2,88
1010,80	-0,94
1010,97	3,87
1011,14	-0,88
1011,30	5,51
1011,47	10,76
1011,64	5,85
1011,80	1,65
1011,97	5,88
1012,14	7,21
1012,30	7,28
1012,47	0,32
1012,64	9,53
1012,80	1,00
1012,97	7,62
1013,14	1,75
1013,30	7,59
1013,47	3,53
1013,64	6,26
1013,80	2,78
1013,97	2,50
1014,14	-0,57
1014,30	2,43
1014,47	3,08
1014,64	10,66
1014,80	2,43
1014,97	3,12
1015,14	-3,10
1015,30	16,87
1015,47	1,65
1015,64	10,39
1015,80	3,36
1015,97	6,50
1016,13	7,62
1016,30	13,02
1016,47	-1,53
1016,63	1,85
1016,80	1,58
1016,97	2,06
1017,13	5,64
1017,30	3,25
1017,47	0,45
1017,63	10,18
1017,80	-1,46
1017,96	2,40
1018,13	4,00
1018,30	8,92
1018,46	2,64
1018,63	4,14
1018,80	2,47
1018,96	11,17
1019,13	11,72
1019,29	8,37
1019,46	-0,81
1019,63	8,37
1019,79	-5,48
1019,96	7,96
1020,13	6,12
1020,29	5,20
1020,46	-2,62
1020,62	-2,28
1020,79	7,52
1020,96	9,12
1021,12	-3,10
1021,29	4,17
1021,45	5,85
1021,62	13,90
1021,79	1,75
1021,95	8,24
1022,12	1,51
1022,28	8,00
1022,45	2,13
1022,62	1,21
1022,78	6,36
1022,95	3,25
1023,11	2,81
1023,28	5,75
1023,45	-4,77
1023,61	7,01
1023,78	7,38
1023,94	6,53
1024,11	6,70
1024,27	11,68
1024,44	3,59
1024,61	2,60
1024,77	8,27
1024,94	4,24
1025,10	3,19
1025,27	7,76
1025,43	1,68
1025,60	6,46
1025,77	13,05
1025,93	3,73
1026,10	6,87
1026,26	11,58
1026,43	-4,09
1026,59	11,14
1026,76	-0,64
1026,93	12,20
1027,09	-2,75
1027,26	7,79
1027,42	8,48
1027,59	9,91
1027,75	-1,08
1027,92	4,17
1028,08	7,69
1028,25	-1,73
1028,42	0,73
1028,58	2,43
1028,75	11,58
1028,91	2,98
1029,08	8,61
1029,24	13,29
1029,41	5,54
1029,57	5,68
1029,74	-0,67
1029,91	4,93
1030,07	-1,87
1030,24	11,41
1030,40	2,78
1030,57	15,00
1030,73	1,61
1030,90	7,45
1031,06	6,63
1031,23	5,88
1031,39	2,71
1031,56	4,48
1031,72	-2,28
1031,89	6,60
1032,05	9,23
1032,22	4,72
1032,38	-5,01
1032,55	5,47
1032,72	5,16
1032,88	3,77
1033,05	4,00
1033,21	7,28
1033,38	-0,57
1033,54	2,88
1033,71	4,82
1033,87	8,34
1034,04	5,71
1034,20	11,85
1034,37	8,41
1034,53	10,52
1034,70	2,67
1034,86	4,45
1035,03	-1,70
1035,19	3,63
1035,36	-1,97
1035,52	5,81
1035,69	2,40
1035,85	11,79
1036,02	0,04
1036,18	8,65
1036,35	2,43
1036,51	5,30
1036,68	-0,36
1036,84	4,55
1037,01	-2,00
1037,17	9,70
1037,34	5,75
1037,50	7,04
1037,67	7,01
>>>>>Finisci Dati dello Spettro Elaborati<<<<<
