File Dati SpectraSuite
++++++++++++++++++++++++++++++++++++
Data: Mon Feb 25 16:36:06 CET 2019
Utente: Studente
Spettro Scuro Presente: Si
Spettro di Riferimento Presente: No
Numero di Componenti Spettri Campionati: 1
Spettrometri: USB4F01341
Tempo di integrazione (usec): 15000 (USB4F01341)
Media Spettri: 10 (USB4F01341)
Appiattimento Boxcar: 0 (USB4F01341)
Correggi Oscurità Elettronica: Si (USB4F01341)
Strobo/Lampada Abilitato: No (USB4F01341)
Correct for Detector Non-linearity: No (USB4F01341)
Correggi Stray Light: No (USB4F01341)
Numero di Pixel nello Spettro Elaborato: 3648
>>>>>Comincia Dati dello Spettro Elaborati<<<<<
337,57	-7,33
337,79	-7,33
338,02	-7,33
338,24	0,86
338,47	-9,38
338,69	6,59
338,92	10,69
339,14	3,52
339,36	10,69
339,59	23,39
339,81	8,44
340,04	9,67
340,26	-1,60
340,49	18,06
340,71	6,39
340,93	-6,10
341,16	-3,24
341,38	7,41
341,61	-3,03
341,83	4,34
342,05	11,71
342,28	5,16
342,50	3,52
342,73	-2,01
342,95	1,68
343,17	-2,01
343,40	-14,09
343,62	-6,72
343,85	6,59
344,07	-5,90
344,29	-6,72
344,52	9,05
344,74	-0,16
344,97	-13,89
345,19	-2,42
345,41	5,78
345,64	7,62
345,86	14,17
346,08	-1,60
346,31	-0,16
346,53	14,17
346,76	9,26
346,98	1,27
347,20	7,41
347,43	2,29
347,65	11,92
347,87	26,46
348,10	6,18
348,32	-13,48
348,54	2,70
348,77	0,66
348,99	-12,66
349,21	16,02
349,44	0,66
349,66	-1,19
349,88	3,52
350,11	6,59
350,33	1,47
350,55	1,68
350,78	-4,67
351,00	12,53
351,22	-0,78
351,45	-14,70
351,67	-5,08
351,89	-17,98
352,12	15,40
352,34	25,44
352,56	11,30
352,79	-4,05
353,01	0,86
353,23	9,67
353,45	-3,03
353,68	13,15
353,90	15,40
354,12	-9,17
354,35	2,09
354,57	22,36
354,79	-6,92
355,01	-7,13
355,24	-7,54
355,46	19,91
355,68	10,28
355,91	17,45
356,13	5,78
356,35	15,20
356,57	-2,62
356,80	8,64
357,02	3,32
357,24	16,63
357,46	3,73
357,69	-0,78
357,91	16,02
358,13	-14,09
358,35	10,90
358,58	0,25
358,80	-3,44
359,02	18,88
359,24	-4,87
359,47	2,91
359,69	9,87
359,91	6,80
360,13	20,11
360,36	-22,49
360,58	-10,81
360,80	-6,10
361,02	25,23
361,25	8,23
361,47	2,29
361,69	6,59
361,91	19,91
362,13	4,55
362,36	18,47
362,58	26,66
362,80	9,46
363,02	-7,95
363,25	8,85
363,47	1,68
363,69	5,98
363,91	-6,72
364,13	12,12
364,36	19,50
364,58	16,22
364,80	4,75
365,02	14,17
365,24	5,37
365,47	-4,67
365,69	19,29
365,91	6,59
366,13	11,92
366,35	0,25
366,57	6,59
366,80	-1,19
367,02	9,46
367,24	11,71
367,46	27,69
367,68	24,00
367,90	-12,25
368,13	-23,10
368,35	2,70
368,57	16,63
368,79	15,61
369,01	1,06
369,23	21,34
369,46	0,45
369,68	10,08
369,90	-1,80
370,12	9,46
370,34	-8,15
370,56	30,76
370,78	-16,55
371,01	11,71
371,23	-5,49
371,45	9,87
371,67	-15,93
371,89	32,60
372,11	29,33
372,33	1,27
372,56	9,46
372,78	10,08
373,00	8,85
373,22	2,09
373,44	26,87
373,66	19,91
373,88	9,87
374,10	-5,69
374,32	3,32
374,55	21,95
374,77	22,98
374,99	27,89
375,21	0,45
375,43	16,63
375,65	-12,86
375,87	7,21
376,09	11,10
376,31	25,23
376,53	-3,65
376,75	5,78
376,98	-0,37
377,20	23,59
377,42	7,82
377,64	10,08
377,86	9,87
378,08	10,69
378,30	1,06
378,52	2,91
378,74	35,47
378,96	26,05
379,18	8,23
379,40	18,27
379,62	17,24
379,84	25,03
380,07	22,77
380,29	11,10
380,51	-15,11
380,73	18,27
380,95	30,56
381,17	26,87
381,39	-21,05
381,61	15,40
381,83	17,24
382,05	13,97
382,27	6,80
382,49	42,64
382,71	21,75
382,93	21,14
383,15	13,15
383,37	8,44
383,59	3,93
383,81	22,57
384,03	-21,87
384,25	18,27
384,47	4,75
384,69	18,06
384,91	35,06
385,13	14,58
385,35	0,86
385,57	36,49
385,79	18,47
386,01	29,94
386,23	40,18
386,45	71,11
386,67	55,13
386,89	80,53
387,11	92,81
387,33	101,83
387,55	120,05
387,77	146,88
387,99	129,68
388,21	153,84
388,43	142,78
388,65	184,56
388,87	191,53
389,09	200,54
389,31	221,84
389,53	215,90
389,75	238,22
389,97	238,42
390,19	251,53
390,41	225,11
390,63	230,85
390,85	238,22
391,07	231,46
391,29	236,38
391,51	250,92
391,72	239,45
391,94	231,87
392,16	246,00
392,38	199,10
392,60	196,03
392,82	177,40
393,04	182,72
393,26	189,68
393,48	132,13
393,70	131,73
393,92	124,56
394,14	122,30
394,36	91,99
394,58	95,68
394,80	83,19
395,01	46,12
395,23	52,26
395,45	50,83
395,67	39,57
395,89	41,00
396,11	47,96
396,33	17,86
396,55	10,90
396,77	34,65
396,99	29,94
397,21	6,80
397,42	38,54
397,64	21,14
397,86	31,58
398,08	-7,54
398,30	7,41
398,52	19,91
398,74	25,44
398,96	4,34
399,17	1,27
399,39	7,62
399,61	14,17
399,83	5,16
400,05	1,47
400,27	-4,46
400,49	18,06
400,71	-16,34
400,92	-5,90
401,14	-1,19
401,36	36,70
401,58	2,50
401,80	10,69
402,02	-15,93
402,24	-3,85
402,45	-10,20
402,67	18,27
402,89	9,87
403,11	16,63
403,33	2,29
403,55	18,27
403,76	8,44
403,98	6,18
404,20	13,35
404,42	21,14
404,64	-3,65
404,86	6,80
405,07	-8,77
405,29	19,09
405,51	-12,04
405,73	13,56
405,95	7,62
406,17	-0,16
406,38	-14,91
406,60	8,44
406,82	-2,21
407,04	25,85
407,26	2,70
407,47	2,09
407,69	-16,14
407,91	34,45
408,13	8,23
408,35	29,74
408,56	6,80
408,78	29,53
409,00	9,26
409,22	-0,16
409,44	11,10
409,65	0,86
409,87	4,34
410,09	30,76
410,31	4,96
410,52	25,44
410,74	-9,17
410,96	-10,61
411,18	6,80
411,40	15,81
411,61	11,71
411,83	25,03
412,05	12,94
412,27	13,56
412,48	19,50
412,70	14,99
412,92	-11,43
413,14	-11,02
413,35	2,50
413,57	12,33
413,79	-0,98
414,01	30,15
414,22	14,58
414,44	7,00
414,66	12,94
414,87	24,00
415,09	14,38
415,31	9,67
415,53	-11,02
415,74	9,67
415,96	0,66
416,18	25,03
416,40	24,21
416,61	5,98
416,83	17,24
417,05	4,96
417,26	-17,78
417,48	0,66
417,70	36,49
417,92	0,86
418,13	19,09
418,35	12,53
418,57	2,29
418,78	21,34
419,00	13,35
419,22	10,08
419,43	6,39
419,65	20,11
419,87	1,47
420,09	14,79
420,30	4,75
420,52	-18,39
420,74	14,38
420,95	8,44
421,17	14,99
421,39	24,82
421,60	21,34
421,82	13,76
422,04	2,70
422,25	6,80
422,47	-20,23
422,69	18,68
422,90	1,88
423,12	21,14
423,34	22,16
423,55	11,10
423,77	4,55
423,99	-17,78
424,20	-1,39
424,42	-9,58
424,64	10,90
424,85	16,42
425,07	10,49
425,28	6,18
425,50	13,35
425,72	23,39
425,93	13,35
426,15	21,34
426,37	20,32
426,58	7,21
426,80	-1,39
427,01	-1,19
427,23	8,85
427,45	14,17
427,66	13,35
427,88	13,35
428,10	16,42
428,31	13,56
428,53	26,25
428,74	1,68
428,96	6,59
429,18	0,04
429,39	9,05
429,61	11,30
429,82	6,80
430,04	25,64
430,26	-2,01
430,47	0,45
430,69	10,08
430,90	9,67
431,12	-13,68
431,34	21,14
431,55	-12,66
431,77	27,28
431,98	0,04
432,20	4,34
432,41	21,95
432,63	13,97
432,85	8,23
433,06	-3,65
433,28	16,42
433,49	14,79
433,71	-0,98
433,92	11,92
434,14	5,57
434,35	17,45
434,57	16,22
434,79	1,27
435,00	-0,16
435,22	21,75
435,43	-2,42
435,65	20,11
435,86	-4,87
436,08	17,24
436,29	-15,93
436,51	15,61
436,72	14,38
436,94	1,47
437,16	9,87
437,37	18,68
437,59	7,62
437,80	20,93
438,02	1,68
438,23	-7,95
438,45	28,51
438,66	10,08
438,88	-2,62
439,09	5,98
439,31	-5,69
439,52	14,58
439,74	8,64
439,95	31,17
440,17	-11,63
440,38	7,82
440,60	11,51
440,81	1,27
441,03	5,78
441,24	31,37
441,46	-1,39
441,67	6,80
441,89	30,15
442,10	9,46
442,32	-4,87
442,53	-3,24
442,75	5,78
442,96	31,17
443,18	13,35
443,39	0,86
443,61	-1,39
443,82	15,81
444,04	-6,92
444,25	-26,38
444,46	10,08
444,68	31,17
444,89	16,02
445,11	11,92
445,32	24,00
445,54	8,23
445,75	0,25
445,97	14,38
446,18	8,44
446,40	19,50
446,61	9,46
446,82	-5,08
447,04	30,97
447,25	4,55
447,47	8,23
447,68	14,38
447,90	20,93
448,11	0,86
448,32	24,41
448,54	11,71
448,75	13,97
448,97	11,10
449,18	30,15
449,40	7,82
449,61	15,81
449,82	5,78
450,04	-0,98
450,25	12,53
450,47	-12,25
450,68	28,30
450,89	-13,27
451,11	3,32
451,32	-19,62
451,54	28,51
451,75	15,40
451,96	15,81
452,18	20,93
452,39	1,88
452,61	0,25
452,82	4,55
453,03	-2,21
453,25	36,49
453,46	1,88
453,68	22,77
453,89	10,28
454,10	9,26
454,32	9,67
454,53	28,51
454,74	28,51
454,96	24,62
455,17	-10,40
455,39	27,69
455,60	11,10
455,81	1,68
456,03	-11,22
456,24	-5,69
456,45	11,92
456,67	-12,86
456,88	4,14
457,09	7,41
457,31	23,59
457,52	-2,83
457,73	17,86
457,95	11,71
458,16	1,06
458,37	10,08
458,59	-2,21
458,80	8,44
459,01	1,88
459,23	25,64
459,44	14,99
459,65	25,03
459,87	3,11
460,08	22,98
460,29	3,11
460,51	36,49
460,72	7,82
460,93	19,91
461,15	3,32
461,36	9,67
461,57	15,20
461,79	12,94
462,00	3,32
462,21	21,95
462,42	35,68
462,64	12,12
462,85	26,87
463,06	18,27
463,28	-15,32
463,49	22,77
463,70	9,87
463,92	-1,19
464,13	23,59
464,34	24,21
464,55	8,03
464,77	5,57
464,98	-0,37
465,19	-0,37
465,40	0,66
465,62	1,27
465,83	26,05
466,04	14,17
466,26	34,24
466,47	-0,16
466,68	16,63
466,89	12,94
467,11	0,04
467,32	14,79
467,53	6,59
467,74	8,03
467,96	2,91
468,17	9,05
468,38	8,85
468,59	1,88
468,81	7,21
469,02	14,58
469,23	29,33
469,44	44,89
469,66	4,75
469,87	26,46
470,08	-11,02
470,29	2,09
470,50	-4,67
470,72	23,80
470,93	22,36
471,14	6,80
471,35	8,64
471,57	10,69
471,78	22,77
471,99	10,08
472,20	-11,63
472,41	1,47
472,63	4,75
472,84	5,78
473,05	8,23
473,26	3,11
473,47	16,63
473,69	13,35
473,90	4,34
474,11	13,76
474,32	11,51
474,53	23,80
474,75	-5,28
474,96	10,49
475,17	29,12
475,38	2,91
475,59	19,50
475,80	17,45
476,02	7,82
476,23	11,51
476,44	13,97
476,65	7,82
476,86	12,74
477,08	20,32
477,29	21,95
477,50	23,39
477,71	18,27
477,92	21,95
478,13	8,44
478,34	6,80
478,56	14,79
478,77	18,27
478,98	26,25
479,19	1,68
479,40	2,50
479,61	5,78
479,83	19,70
480,04	9,67
480,25	-13,68
480,46	3,93
480,67	18,47
480,88	0,66
481,09	10,08
481,30	17,65
481,52	30,35
481,73	14,38
481,94	20,11
482,15	23,18
482,36	15,20
482,57	5,57
482,78	17,45
482,99	13,35
483,21	17,45
483,42	19,29
483,63	22,36
483,84	10,08
484,05	-11,43
484,26	15,81
484,47	11,10
484,68	1,27
484,89	15,61
485,10	14,58
485,32	9,67
485,53	12,12
485,74	22,77
485,95	-3,03
486,16	20,52
486,37	35,47
486,58	24,00
486,79	0,04
487,00	19,91
487,21	14,99
487,42	5,16
487,63	13,35
487,85	-0,98
488,06	26,66
488,27	24,62
488,48	-20,23
488,69	3,32
488,90	11,51
489,11	-1,19
489,32	25,23
489,53	5,78
489,74	20,52
489,95	21,75
490,16	15,61
490,37	3,93
490,58	32,40
490,79	17,04
491,00	9,05
491,21	22,77
491,42	21,14
491,63	12,33
491,84	8,85
492,06	0,86
492,27	13,15
492,48	22,36
492,69	42,23
492,90	34,45
493,11	24,21
493,32	31,37
493,53	7,41
493,74	11,51
493,95	10,69
494,16	-15,32
494,37	-8,97
494,58	36,70
494,79	1,06
495,00	16,83
495,21	21,34
495,42	-6,92
495,63	2,91
495,84	9,05
496,05	25,44
496,26	8,03
496,47	24,41
496,68	13,35
496,89	-3,85
497,10	2,50
497,31	18,88
497,52	15,20
497,73	15,40
497,94	18,27
498,15	9,05
498,36	-10,81
498,57	11,10
498,78	28,51
498,98	12,33
499,19	18,06
499,40	23,59
499,61	7,62
499,82	13,35
500,03	6,18
500,24	12,94
500,45	21,95
500,66	26,25
500,87	17,86
501,08	21,34
501,29	22,16
501,50	10,08
501,71	8,03
501,92	26,46
502,13	17,65
502,34	2,29
502,55	12,12
502,76	9,67
502,97	36,70
503,17	38,34
503,38	12,33
503,59	23,39
503,80	-1,39
504,01	11,30
504,22	13,97
504,43	30,15
504,64	-1,60
504,85	13,15
505,06	21,95
505,27	20,11
505,48	18,47
505,68	27,28
505,89	-4,67
506,10	31,37
506,31	3,73
506,52	33,22
506,73	26,87
506,94	14,58
507,15	35,68
507,36	13,35
507,57	19,70
507,77	18,88
507,98	7,62
508,19	17,86
508,40	4,14
508,61	28,51
508,82	6,59
509,03	17,65
509,24	-2,62
509,45	8,23
509,65	1,68
509,86	35,27
510,07	17,24
510,28	17,65
510,49	-10,20
510,70	30,76
510,91	17,45
511,11	17,45
511,32	23,39
511,53	25,64
511,74	21,95
511,95	2,29
512,16	3,11
512,37	19,29
512,57	5,78
512,78	16,83
512,99	27,69
513,20	6,39
513,41	20,93
513,62	18,47
513,82	19,91
514,03	-9,58
514,24	8,44
514,45	16,63
514,66	12,74
514,87	46,12
515,07	-11,63
515,28	33,01
515,49	8,64
515,70	10,49
515,91	32,19
516,11	10,69
516,32	11,30
516,53	32,81
516,74	11,51
516,95	17,65
517,16	30,56
517,36	28,30
517,57	19,09
517,78	34,04
517,99	-7,54
518,20	30,56
518,40	25,23
518,61	19,50
518,82	13,76
519,03	4,75
519,23	25,85
519,44	34,86
519,65	15,20
519,86	15,61
520,07	1,47
520,27	42,84
520,48	25,85
520,69	1,06
520,90	27,48
521,10	21,95
521,31	23,59
521,52	31,58
521,73	11,30
521,94	17,65
522,14	5,37
522,35	36,70
522,56	13,97
522,77	25,23
522,97	11,10
523,18	28,92
523,39	21,75
523,60	7,21
523,80	19,09
524,01	12,12
524,22	13,76
524,43	3,52
524,63	13,76
524,84	20,32
525,05	-14,29
525,25	11,51
525,46	0,25
525,67	29,94
525,88	-3,65
526,08	-0,57
526,29	-0,16
526,50	28,51
526,71	10,49
526,91	40,18
527,12	-0,78
527,33	13,76
527,53	12,12
527,74	9,05
527,95	32,19
528,16	0,86
528,36	-7,13
528,57	2,50
528,78	27,48
528,98	10,28
529,19	28,92
529,40	20,93
529,60	28,30
529,81	33,83
530,02	34,04
530,22	17,45
530,43	8,64
530,64	16,22
530,85	21,75
531,05	-3,24
531,26	31,58
531,47	26,05
531,67	7,21
531,88	17,86
532,09	8,44
532,29	24,21
532,50	18,06
532,71	19,09
532,91	-5,90
533,12	12,12
533,33	-5,28
533,53	11,51
533,74	24,21
533,95	19,50
534,15	6,39
534,36	16,42
534,56	18,47
534,77	16,42
534,98	10,28
535,18	33,83
535,39	4,14
535,60	22,77
535,80	6,80
536,01	12,12
536,22	23,18
536,42	13,76
536,63	14,99
536,83	16,83
537,04	7,82
537,25	23,39
537,45	19,09
537,66	21,95
537,87	13,97
538,07	25,44
538,28	7,21
538,48	31,99
538,69	8,23
538,90	5,78
539,10	-0,57
539,31	11,71
539,51	24,62
539,72	18,06
539,93	21,95
540,13	32,19
540,34	14,99
540,54	16,02
540,75	4,75
540,96	13,97
541,16	-6,72
541,37	27,28
541,57	12,74
541,78	26,25
541,99	10,90
542,19	18,68
542,40	28,71
542,60	25,85
542,81	-9,58
543,01	38,54
543,22	14,38
543,43	33,83
543,63	9,05
543,84	12,53
544,04	16,02
544,25	29,53
544,45	19,09
544,66	-9,79
544,87	11,10
545,07	14,99
545,28	-3,65
545,48	25,85
545,69	5,57
545,89	-6,92
546,10	16,22
546,30	14,17
546,51	13,97
546,71	30,76
546,92	-8,15
547,13	18,27
547,33	17,24
547,54	29,12
547,74	24,00
547,95	4,96
548,15	4,96
548,36	38,54
548,56	6,18
548,77	27,28
548,97	23,39
549,18	34,04
549,38	16,42
549,59	-3,24
549,79	13,76
550,00	11,30
550,20	25,64
550,41	16,83
550,61	25,44
550,82	17,86
551,02	18,47
551,23	5,98
551,43	2,70
551,64	24,00
551,84	-2,62
552,05	16,42
552,25	19,50
552,46	41,82
552,66	-0,16
552,87	12,53
553,07	-4,87
553,28	-5,49
553,48	8,03
553,69	4,34
553,89	13,56
554,10	41,00
554,30	34,04
554,51	6,59
554,71	13,56
554,92	7,82
555,12	8,03
555,32	23,80
555,53	21,34
555,73	27,28
555,94	17,65
556,14	22,57
556,35	1,88
556,55	8,03
556,76	4,75
556,96	18,47
557,17	25,64
557,37	10,28
557,57	13,97
557,78	12,74
557,98	-6,10
558,19	24,82
558,39	9,05
558,60	11,92
558,80	8,64
559,00	5,37
559,21	6,18
559,41	9,46
559,62	19,29
559,82	-5,90
560,03	7,21
560,23	28,51
560,43	4,75
560,64	26,46
560,84	3,11
561,05	5,78
561,25	14,17
561,45	24,82
561,66	32,81
561,86	5,57
562,07	3,52
562,27	2,29
562,47	-5,49
562,68	31,17
562,88	9,87
563,09	23,39
563,29	17,86
563,49	8,64
563,70	18,88
563,90	1,27
564,11	19,09
564,31	7,62
564,51	3,73
564,72	20,52
564,92	41,00
565,12	11,71
565,33	11,71
565,53	35,27
565,74	4,34
565,94	14,79
566,14	31,58
566,35	50,01
566,55	7,62
566,75	19,70
566,96	7,00
567,16	14,38
567,36	9,67
567,57	23,18
567,77	-5,90
567,98	25,85
568,18	24,21
568,38	20,32
568,59	11,10
568,79	14,17
568,99	18,47
569,20	30,15
569,40	18,68
569,60	0,66
569,81	6,39
570,01	39,98
570,21	17,45
570,42	11,51
570,62	1,27
570,82	10,49
571,03	3,73
571,23	20,52
571,43	9,87
571,63	-4,46
571,84	28,10
572,04	31,17
572,24	20,93
572,45	31,99
572,65	33,01
572,85	23,39
573,06	1,27
573,26	17,04
573,46	14,58
573,67	35,06
573,87	-4,26
574,07	11,92
574,27	5,98
574,48	26,46
574,68	-8,56
574,88	15,61
575,09	16,63
575,29	14,38
575,49	15,61
575,69	14,17
575,90	-3,65
576,10	20,73
576,30	28,10
576,51	25,03
576,71	7,41
576,91	8,85
577,11	13,76
577,32	18,88
577,52	26,87
577,72	14,17
577,92	27,69
578,13	12,53
578,33	20,32
578,53	30,35
578,73	13,76
578,94	17,86
579,14	13,56
579,34	31,58
579,54	21,14
579,75	13,56
579,95	27,07
580,15	12,12
580,35	49,19
580,56	17,65
580,76	4,34
580,96	0,45
581,16	11,71
581,37	27,28
581,57	-0,78
581,77	31,17
581,97	4,55
582,17	15,81
582,38	6,39
582,58	13,15
582,78	13,15
582,98	19,91
583,19	6,59
583,39	8,85
583,59	3,73
583,79	-0,37
583,99	12,74
584,20	23,39
584,40	12,33
584,60	31,78
584,80	-6,72
585,00	7,41
585,21	21,95
585,41	45,30
585,61	13,15
585,81	20,52
586,01	1,06
586,22	15,40
586,42	22,16
586,62	14,38
586,82	13,97
587,02	19,50
587,22	17,65
587,43	12,94
587,63	2,50
587,83	13,15
588,03	13,35
588,23	4,96
588,43	20,52
588,64	12,94
588,84	14,38
589,04	-14,91
589,24	25,03
589,44	18,47
589,64	18,68
589,85	2,29
590,05	22,57
590,25	4,55
590,45	9,67
590,65	1,27
590,85	8,44
591,05	13,35
591,26	3,73
591,46	32,19
591,66	3,52
591,86	24,21
592,06	29,74
592,26	5,57
592,46	7,00
592,67	18,88
592,87	5,37
593,07	26,25
593,27	2,70
593,47	32,60
593,67	21,34
593,87	22,36
594,07	28,71
594,28	48,78
594,48	8,44
594,68	18,68
594,88	16,02
595,08	16,02
595,28	24,62
595,48	20,93
595,68	10,28
595,88	23,59
596,08	7,41
596,29	17,04
596,49	-4,67
596,69	19,91
596,89	-1,39
597,09	4,75
597,29	27,69
597,49	13,97
597,69	-3,65
597,89	19,50
598,09	13,76
598,29	-9,99
598,50	13,56
598,70	17,86
598,90	2,29
599,10	18,68
599,30	7,62
599,50	25,03
599,70	22,57
599,90	21,54
600,10	14,17
600,30	21,14
600,50	13,76
600,70	35,68
600,90	6,80
601,10	28,51
601,30	12,33
601,50	11,10
601,71	-18,39
601,91	13,76
602,11	8,44
602,31	30,15
602,51	-0,37
602,71	25,85
602,91	20,93
603,11	12,12
603,31	1,27
603,51	19,91
603,71	25,03
603,91	6,59
604,11	3,73
604,31	22,57
604,51	-2,42
604,71	21,14
604,91	24,21
605,11	22,16
605,31	25,23
605,51	-0,78
605,71	-19,01
605,91	2,91
606,11	3,93
606,31	10,28
606,51	27,28
606,71	32,60
606,91	10,90
607,11	35,27
607,31	14,99
607,51	51,85
607,71	12,74
607,91	15,40
608,11	25,85
608,31	19,70
608,51	1,06
608,71	27,69
608,91	-3,65
609,11	13,97
609,31	22,98
609,51	22,16
609,71	-2,62
609,91	38,54
610,11	28,51
610,31	16,63
610,51	12,53
610,71	41,41
610,91	21,54
611,11	10,08
611,31	8,44
611,51	15,40
611,71	37,11
611,91	16,02
612,11	15,40
612,31	26,66
612,51	13,56
612,71	18,68
612,90	4,14
613,10	22,77
613,30	27,28
613,50	18,27
613,70	-1,39
613,90	22,77
614,10	13,97
614,30	-8,97
614,50	10,69
614,70	28,30
614,90	17,04
615,10	3,52
615,30	10,49
615,50	26,66
615,70	-3,85
615,90	31,37
616,09	14,38
616,29	26,25
616,49	8,03
616,69	1,88
616,89	29,94
617,09	22,77
617,29	1,88
617,49	9,05
617,69	19,29
617,89	21,95
618,09	22,57
618,28	20,73
618,48	1,06
618,68	34,24
618,88	25,23
619,08	21,34
619,28	25,64
619,48	3,73
619,68	21,95
619,88	16,42
620,08	24,82
620,27	4,55
620,47	-0,78
620,67	15,81
620,87	31,58
621,07	13,97
621,27	17,86
621,47	14,79
621,67	1,27
621,86	29,33
622,06	23,18
622,26	17,04
622,46	34,86
622,66	16,63
622,86	5,98
623,06	18,47
623,25	15,20
623,45	37,31
623,65	11,30
623,85	-2,62
624,05	19,50
624,25	14,79
624,45	13,35
624,64	29,33
624,84	14,79
625,04	30,56
625,24	22,98
625,44	13,97
625,64	43,87
625,83	44,89
626,03	33,22
626,23	11,92
626,43	19,09
626,63	23,80
626,83	22,77
627,02	37,11
627,22	23,39
627,42	-0,78
627,62	-0,37
627,82	1,68
628,02	10,08
628,21	29,74
628,41	20,32
628,61	29,33
628,81	22,57
629,01	10,28
629,20	25,23
629,40	-1,39
629,60	4,14
629,80	20,93
630,00	3,73
630,19	10,90
630,39	19,70
630,59	26,87
630,79	13,15
630,99	13,56
631,18	29,74
631,38	13,76
631,58	7,41
631,78	11,30
631,98	12,74
632,17	23,39
632,37	24,00
632,57	19,50
632,77	13,35
632,96	56,56
633,16	20,11
633,36	5,78
633,56	29,74
633,76	30,97
633,95	39,98
634,15	-3,44
634,35	22,57
634,55	8,23
634,74	2,50
634,94	6,59
635,14	9,67
635,34	13,35
635,53	9,87
635,73	30,97
635,93	24,62
636,13	15,61
636,32	3,93
636,52	13,97
636,72	12,74
636,92	29,33
637,11	26,05
637,31	43,46
637,51	-0,57
637,70	22,77
637,90	-1,80
638,10	8,23
638,30	31,58
638,49	-5,28
638,69	13,97
638,89	18,88
639,09	17,65
639,28	2,29
639,48	0,25
639,68	23,18
639,87	0,25
640,07	10,28
640,27	14,99
640,47	32,19
640,66	14,58
640,86	12,12
641,06	24,21
641,25	25,85
641,45	15,61
641,65	20,32
641,84	-0,57
642,04	24,21
642,24	25,64
642,44	12,12
642,63	1,68
642,83	16,42
643,03	-1,60
643,22	24,62
643,42	22,36
643,62	13,97
643,81	23,18
644,01	22,98
644,21	16,02
644,40	17,86
644,60	18,68
644,80	22,98
644,99	8,03
645,19	21,34
645,39	-0,98
645,58	26,46
645,78	-9,17
645,98	22,57
646,17	12,33
646,37	23,39
646,57	12,74
646,76	19,29
646,96	5,98
647,16	-9,17
647,35	-1,19
647,55	12,74
647,75	13,15
647,94	9,67
648,14	28,51
648,33	9,67
648,53	10,28
648,73	17,86
648,92	12,12
649,12	-5,28
649,32	-11,63
649,51	8,23
649,71	8,03
649,90	20,73
650,10	21,34
650,30	17,24
650,49	3,93
650,69	15,61
650,89	15,81
651,08	5,78
651,28	7,82
651,47	20,52
651,67	4,75
651,87	7,21
652,06	18,27
652,26	24,21
652,45	0,45
652,65	18,27
652,85	20,11
653,04	16,42
653,24	29,53
653,43	25,03
653,63	0,45
653,83	2,70
654,02	12,53
654,22	-11,43
654,41	18,68
654,61	12,33
654,81	-7,74
655,00	16,22
655,20	14,99
655,39	5,78
655,59	20,73
655,78	21,75
655,98	15,40
656,18	14,99
656,37	16,42
656,57	11,51
656,76	-2,42
656,96	10,90
657,15	-7,95
657,35	-3,85
657,55	6,80
657,74	43,05
657,94	5,98
658,13	13,35
658,33	33,83
658,52	14,79
658,72	1,27
658,91	3,73
659,11	14,99
659,30	22,77
659,50	-0,98
659,70	15,61
659,89	17,04
660,09	2,09
660,28	-2,62
660,48	16,83
660,67	-1,19
660,87	22,77
661,06	23,80
661,26	22,57
661,45	15,40
661,65	21,75
661,84	34,24
662,04	16,02
662,23	13,35
662,43	22,16
662,62	0,45
662,82	5,78
663,01	-4,67
663,21	19,09
663,41	7,21
663,60	25,64
663,80	-18,60
663,99	10,28
664,19	5,37
664,38	-6,72
664,58	5,78
664,77	30,15
664,97	22,16
665,16	-5,49
665,35	24,62
665,55	9,87
665,74	12,53
665,94	13,76
666,13	7,21
666,33	5,98
666,52	24,00
666,72	27,89
666,91	5,37
667,11	16,63
667,30	8,64
667,50	5,78
667,69	-11,22
667,89	-6,92
668,08	15,61
668,28	-0,78
668,47	13,15
668,67	8,44
668,86	13,35
669,05	6,18
669,25	12,12
669,44	13,35
669,64	27,89
669,83	13,97
670,03	28,30
670,22	57,79
670,42	3,93
670,61	4,75
670,81	23,18
671,00	14,17
671,19	14,38
671,39	11,92
671,58	21,95
671,78	44,69
671,97	6,59
672,17	-4,05
672,36	14,79
672,55	-3,44
672,75	28,51
672,94	8,85
673,14	20,32
673,33	23,18
673,53	3,32
673,72	18,27
673,91	22,36
674,11	32,19
674,30	20,11
674,50	13,97
674,69	7,21
674,88	7,62
675,08	4,55
675,27	18,47
675,47	18,06
675,66	33,01
675,85	20,11
676,05	16,02
676,24	33,63
676,44	-0,37
676,63	3,73
676,82	10,28
677,02	11,51
677,21	-8,36
677,41	-8,36
677,60	39,98
677,79	16,42
677,99	21,95
678,18	9,46
678,37	24,00
678,57	9,05
678,76	17,04
678,96	6,80
679,15	13,35
679,34	34,86
679,54	12,12
679,73	12,12
679,92	16,22
680,12	24,21
680,31	16,83
680,51	3,11
680,70	10,69
680,89	13,15
681,09	11,30
681,28	22,77
681,47	26,46
681,67	21,75
681,86	8,44
682,05	6,59
682,25	16,02
682,44	16,22
682,63	3,52
682,83	19,91
683,02	20,73
683,21	40,18
683,41	11,71
683,60	16,42
683,79	15,61
683,99	22,57
684,18	28,10
684,37	22,77
684,57	-21,26
684,76	25,44
684,95	20,52
685,15	25,03
685,34	13,35
685,53	15,81
685,73	-11,84
685,92	10,28
686,11	15,20
686,31	3,93
686,50	16,22
686,69	15,20
686,88	29,12
687,08	10,90
687,27	27,28
687,46	5,98
687,66	12,33
687,85	10,90
688,04	5,57
688,24	3,52
688,43	23,39
688,62	17,04
688,81	28,30
689,01	5,98
689,20	10,69
689,39	1,06
689,59	27,48
689,78	24,00
689,97	-7,54
690,16	-6,51
690,36	14,17
690,55	-0,57
690,74	11,10
690,93	23,18
691,13	8,44
691,32	22,36
691,51	31,17
691,70	7,41
691,90	27,48
692,09	12,33
692,28	13,56
692,48	21,95
692,67	18,27
692,86	15,20
693,05	4,75
693,25	9,87
693,44	17,86
693,63	-12,25
693,82	19,29
694,01	-1,60
694,21	25,03
694,40	22,57
694,59	13,35
694,78	-2,01
694,98	7,41
695,17	14,38
695,36	8,85
695,55	2,09
695,75	26,46
695,94	-3,03
696,13	19,29
696,32	22,16
696,51	39,16
696,71	22,57
696,90	22,57
697,09	16,83
697,28	39,98
697,48	26,66
697,67	15,20
697,86	37,31
698,05	21,95
698,24	12,74
698,44	17,86
698,63	-8,97
698,82	9,87
699,01	21,95
699,20	21,14
699,40	23,59
699,59	34,04
699,78	23,80
699,97	17,24
700,16	18,88
700,36	39,77
700,55	26,25
700,74	21,14
700,93	10,90
701,12	35,27
701,31	4,75
701,51	14,38
701,70	46,73
701,89	9,87
702,08	40,80
702,27	23,80
702,46	7,00
702,66	0,45
702,85	36,70
703,04	42,02
703,23	18,88
703,42	32,19
703,61	27,07
703,81	28,92
704,00	29,94
704,19	23,80
704,38	8,85
704,57	-6,72
704,76	39,77
704,96	41,21
705,15	9,87
705,34	17,24
705,53	26,46
705,72	9,05
705,91	30,56
706,10	34,65
706,30	22,57
706,49	0,25
706,68	16,63
706,87	26,87
707,06	14,58
707,25	24,00
707,44	8,85
707,63	15,81
707,83	25,44
708,02	32,40
708,21	-9,79
708,40	10,28
708,59	17,24
708,78	37,72
708,97	20,93
709,16	10,90
709,35	25,64
709,55	41,61
709,74	12,53
709,93	30,35
710,12	42,43
710,31	23,39
710,50	2,91
710,69	-2,21
710,88	31,58
711,07	19,50
711,26	11,71
711,46	23,39
711,65	19,91
711,84	14,17
712,03	-6,10
712,22	25,64
712,41	23,18
712,60	58,20
712,79	22,36
712,98	5,37
713,17	8,85
713,36	32,40
713,55	2,29
713,75	30,76
713,94	23,39
714,13	40,39
714,32	15,20
714,51	29,74
714,70	4,14
714,89	34,45
715,08	10,69
715,27	34,04
715,46	3,73
715,65	21,75
715,84	5,16
716,03	10,08
716,22	29,74
716,41	26,05
716,60	35,88
716,79	32,60
716,99	29,94
717,18	17,65
717,37	37,93
717,56	26,46
717,75	19,50
717,94	26,25
718,13	28,30
718,32	8,23
718,51	26,05
718,70	19,09
718,89	18,68
719,08	22,57
719,27	5,78
719,46	39,57
719,65	18,88
719,84	27,89
720,03	16,83
720,22	20,73
720,41	12,33
720,60	11,71
720,79	33,63
720,98	47,96
721,17	16,63
721,36	9,67
721,55	39,16
721,74	26,66
721,93	28,92
722,12	20,11
722,31	25,44
722,50	21,54
722,69	32,19
722,88	38,75
723,07	29,53
723,26	36,90
723,45	29,33
723,64	18,68
723,83	28,10
724,02	29,53
724,21	52,47
724,40	45,92
724,59	6,59
724,78	16,83
724,97	27,28
725,16	5,37
725,35	-6,51
725,54	2,50
725,73	42,84
725,92	45,10
726,11	29,53
726,30	29,53
726,49	18,68
726,68	26,05
726,87	-0,78
727,06	12,74
727,25	36,49
727,43	7,82
727,62	22,98
727,81	21,95
728,00	21,95
728,19	15,20
728,38	32,81
728,57	39,16
728,76	0,45
728,95	3,11
729,14	38,54
729,33	29,74
729,52	21,14
729,71	17,65
729,90	33,83
730,09	4,34
730,28	36,90
730,47	47,14
730,65	19,09
730,84	18,68
731,03	24,41
731,22	29,33
731,41	32,40
731,60	13,56
731,79	36,29
731,98	18,68
732,17	18,47
732,36	16,42
732,55	5,98
732,74	28,92
732,92	14,58
733,11	27,07
733,30	3,52
733,49	19,91
733,68	32,40
733,87	35,68
734,06	21,75
734,25	23,80
734,44	25,64
734,63	32,60
734,81	26,87
735,00	12,33
735,19	8,64
735,38	27,07
735,57	35,06
735,76	32,81
735,95	23,18
736,14	39,77
736,33	22,98
736,51	26,66
736,70	9,26
736,89	30,76
737,08	13,56
737,27	26,05
737,46	28,51
737,65	25,44
737,83	33,63
738,02	13,97
738,21	13,76
738,40	32,19
738,59	34,65
738,78	22,77
738,97	9,05
739,16	45,51
739,34	29,33
739,53	27,28
739,72	17,04
739,91	33,42
740,10	10,69
740,29	34,24
740,47	37,11
740,66	36,90
740,85	6,59
741,04	40,59
741,23	13,97
741,42	49,81
741,60	15,20
741,79	32,40
741,98	9,46
742,17	7,21
742,36	37,93
742,55	17,86
742,73	23,80
742,92	35,27
743,11	23,80
743,30	10,90
743,49	13,56
743,68	26,46
743,86	27,28
744,05	26,87
744,24	5,37
744,43	-1,60
744,62	19,29
744,80	8,85
744,99	20,32
745,18	20,32
745,37	21,14
745,56	44,28
745,74	14,17
745,93	14,79
746,12	11,71
746,31	25,03
746,50	33,63
746,68	25,44
746,87	32,40
747,06	14,58
747,25	18,88
747,44	51,65
747,62	25,44
747,81	15,61
748,00	26,46
748,19	25,44
748,37	13,56
748,56	28,51
748,75	17,86
748,94	16,63
749,13	5,57
749,31	28,51
749,50	12,74
749,69	17,45
749,88	7,41
750,06	30,15
750,25	14,38
750,44	24,41
750,63	11,51
750,81	41,21
751,00	36,49
751,19	16,02
751,38	17,86
751,56	28,10
751,75	18,06
751,94	36,70
752,13	25,85
752,31	29,74
752,50	23,80
752,69	24,82
752,88	36,49
753,06	37,31
753,25	-5,08
753,44	22,98
753,63	25,44
753,81	16,63
754,00	47,76
754,19	43,25
754,37	33,42
754,56	35,68
754,75	17,24
754,94	22,98
755,12	41,21
755,31	19,91
755,50	22,57
755,69	53,49
755,87	33,42
756,06	43,25
756,25	29,12
756,43	48,37
756,62	47,96
756,81	58,00
756,99	39,77
757,18	39,98
757,37	18,88
757,56	8,85
757,74	35,47
757,93	38,54
758,12	50,22
758,30	39,16
758,49	25,03
758,68	27,07
758,86	59,64
759,05	54,31
759,24	32,40
759,42	39,77
759,61	54,11
759,80	34,24
759,99	62,50
760,17	40,80
760,36	62,71
760,55	43,46
760,73	44,89
760,92	25,85
761,11	50,01
761,29	51,44
761,48	48,37
761,67	52,06
761,85	31,17
762,04	53,49
762,23	64,14
762,41	42,43
762,60	43,66
762,79	48,99
762,97	62,91
763,16	58,41
763,34	41,82
763,53	49,19
763,72	37,93
763,90	58,20
764,09	45,30
764,28	73,77
764,46	49,40
764,65	81,35
764,84	54,52
765,02	66,40
765,21	40,18
765,40	75,61
765,58	80,94
765,77	60,46
765,95	61,89
766,14	68,03
766,33	52,26
766,51	80,94
766,70	50,22
766,89	64,35
767,07	90,15
767,26	79,30
767,44	73,56
767,63	106,33
767,82	64,55
768,00	95,48
768,19	73,15
768,37	81,75
768,56	93,63
768,75	75,82
768,93	83,19
769,12	98,55
769,30	107,35
769,49	118,62
769,68	104,69
769,86	107,56
770,05	100,19
770,23	117,39
770,42	111,04
770,61	133,57
770,79	138,28
770,98	132,75
771,16	130,09
771,35	136,85
771,54	138,89
771,72	148,93
771,91	152,41
772,09	168,59
772,28	154,66
772,46	178,21
772,65	176,99
772,84	175,14
773,02	193,57
773,21	202,18
773,39	218,15
773,58	221,84
773,76	226,14
773,95	225,93
774,13	248,66
774,32	312,36
774,51	382,40
774,69	517,97
774,88	685,50
775,06	918,55
775,25	1202,81
775,43	1509,39
775,62	1952,16
775,80	2430,16
775,99	3066,46
776,18	3642,76
776,36	4458,88
776,55	5244,68
776,73	6189,41
776,92	7022,32
777,10	8269,12
777,29	9347,79
777,47	10679,79
777,66	12076,09
777,84	13568,24
778,03	15204,57
778,21	16838,64
778,40	18656,83
778,58	20398,42
778,77	22433,08
778,95	24113,85
779,14	26016,00
779,33	27929,62
779,51	30004,63
779,70	31517,46
779,88	34216,27
780,07	35384,85
780,25	37380,80
780,44	39522,97
780,62	41210,70
780,81	43589,83
780,99	45042,86
781,18	46487,91
781,36	47436,32
781,55	49357,73
781,73	50166,06
781,92	51501,54
782,10	52120,03
782,29	52864,46
782,47	53215,89
782,66	53553,40
782,84	53546,03
783,03	53165,10
783,21	53176,37
783,39	53157,73
783,58	53023,18
783,76	51955,16
783,95	50967,22
784,13	50231,80
784,32	48770,78
784,50	47655,25
784,69	46301,34
784,87	44793,62
785,06	43031,96
785,24	40927,67
785,43	39486,72
785,61	37930,47
785,80	35658,66
785,98	34093,40
786,17	31964,33
786,35	29856,76
786,53	28016,66
786,72	26058,60
786,90	24305,95
787,09	22285,01
787,27	20412,96
787,46	18659,90
787,64	17273,84
787,83	15301,85
788,01	13827,11
788,19	12328,81
788,38	11044,33
788,56	9667,48
788,75	8539,25
788,93	7303,10
789,12	6367,38
789,30	5362,85
789,49	4618,62
789,67	3806,81
789,85	3133,84
790,04	2567,17
790,22	2159,62
790,41	1670,16
790,59	1345,15
790,77	1024,03
790,96	817,18
791,14	599,07
791,33	477,83
791,51	403,90
791,70	321,98
791,88	269,35
792,06	248,05
792,25	233,51
792,43	212,01
792,62	198,28
792,80	167,16
792,98	159,78
793,17	181,08
793,35	132,95
793,54	162,65
793,72	143,81
793,90	139,51
794,09	162,85
794,27	141,56
794,46	152,61
794,64	126,61
794,82	135,41
795,01	141,76
795,19	118,82
795,37	119,23
795,56	128,86
795,74	104,49
795,93	112,47
796,11	106,13
796,29	129,27
796,48	125,58
796,66	114,73
796,84	106,13
797,03	111,04
797,21	121,28
797,40	112,88
797,58	107,56
797,76	110,22
797,95	101,42
798,13	93,43
798,31	99,37
798,50	97,52
798,68	106,13
798,86	105,31
799,05	105,72
799,23	104,28
799,42	105,92
799,60	89,74
799,78	95,07
799,97	92,81
800,15	104,08
800,33	92,40
800,52	70,49
800,70	92,20
800,88	93,63
801,07	94,45
801,25	77,45
801,43	107,76
801,62	86,06
801,80	101,01
801,98	81,35
802,17	88,10
802,35	102,85
802,53	83,60
802,72	97,73
802,90	81,35
803,08	80,12
803,26	89,74
803,45	89,95
803,63	117,18
803,81	101,62
804,00	87,28
804,18	85,44
804,36	84,62
804,55	103,87
804,73	107,15
804,91	69,88
805,10	113,91
805,28	93,43
805,46	77,66
805,64	113,50
805,83	72,33
806,01	78,07
806,19	83,60
806,38	94,86
806,56	89,54
806,74	81,55
806,92	94,25
807,11	92,61
807,29	69,26
807,47	91,99
807,66	70,90
807,84	99,98
808,02	84,01
808,20	78,68
808,39	82,37
808,57	105,10
808,75	83,80
808,94	67,42
809,12	78,68
809,30	86,26
809,48	68,24
809,67	99,16
809,85	101,21
810,03	59,43
810,21	98,14
810,40	88,51
810,58	74,79
810,76	89,74
810,94	62,09
811,13	52,47
811,31	74,18
811,49	53,49
811,67	56,97
811,86	58,20
812,04	69,06
812,22	89,13
812,40	33,42
812,59	59,84
812,77	38,75
812,95	54,11
813,13	62,30
813,32	65,99
813,50	47,35
813,68	78,27
813,86	40,59
814,04	66,80
814,23	53,29
814,41	42,23
814,59	41,61
814,77	52,06
814,96	33,01
815,14	59,43
815,32	33,83
815,50	33,42
815,68	33,22
815,87	37,11
816,05	44,07
816,23	39,16
816,41	32,81
816,59	43,66
816,78	59,64
816,96	38,75
817,14	50,22
817,32	45,30
817,50	26,05
817,69	27,28
817,87	18,88
818,05	26,66
818,23	22,36
818,41	24,82
818,60	23,59
818,78	25,64
818,96	28,71
819,14	33,42
819,32	12,94
819,51	44,28
819,69	30,56
819,87	37,31
820,05	20,52
820,23	18,47
820,41	46,73
820,60	21,14
820,78	27,89
820,96	36,49
821,14	18,06
821,32	23,18
821,50	25,64
821,69	42,23
821,87	-1,39
822,05	43,66
822,23	23,39
822,41	-2,62
822,59	0,25
822,78	7,00
822,96	-5,69
823,14	14,58
823,32	16,63
823,50	9,87
823,68	5,57
823,86	32,60
824,05	21,95
824,23	16,83
824,41	25,44
824,59	20,32
824,77	14,99
824,95	-0,78
825,13	3,11
825,32	27,28
825,50	-0,37
825,68	-6,51
825,86	6,18
826,04	21,75
826,22	9,26
826,40	22,77
826,58	12,53
826,77	4,55
826,95	7,21
827,13	11,30
827,31	9,87
827,49	20,32
827,67	2,91
827,85	37,31
828,03	8,64
828,22	21,14
828,40	12,33
828,58	-4,87
828,76	0,86
828,94	25,03
829,12	17,24
829,30	14,38
829,48	20,93
829,66	21,95
829,84	-1,39
830,03	3,52
830,21	0,86
830,39	24,82
830,57	3,11
830,75	13,56
830,93	-5,69
831,11	8,64
831,29	14,79
831,47	2,50
831,65	35,27
831,83	20,11
832,02	-21,05
832,20	13,56
832,38	15,81
832,56	-3,03
832,74	25,03
832,92	15,20
833,10	40,18
833,28	24,41
833,46	32,40
833,64	16,42
833,82	-3,65
834,00	22,16
834,18	1,88
834,36	4,75
834,54	5,98
834,73	17,24
834,91	4,55
835,09	17,65
835,27	19,70
835,45	16,83
835,63	21,14
835,81	12,12
835,99	-3,44
836,17	24,21
836,35	7,41
836,53	29,12
836,71	23,39
836,89	19,50
837,07	3,93
837,25	9,87
837,43	21,75
837,61	34,24
837,79	-3,24
837,97	20,93
838,15	8,44
838,33	21,95
838,51	13,76
838,69	12,53
838,87	-5,69
839,05	-2,83
839,23	22,57
839,41	-8,36
839,59	2,50
839,78	20,93
839,96	-2,42
840,14	15,61
840,32	30,97
840,50	7,62
840,68	19,91
840,86	22,77
841,04	8,03
841,22	35,47
841,40	3,11
841,58	37,72
841,76	13,97
841,94	-9,99
842,12	8,03
842,30	1,47
842,48	9,26
842,66	-14,09
842,84	10,69
843,02	0,25
843,20	-3,44
843,38	10,08
843,55	8,64
843,73	29,53
843,91	25,03
844,09	23,39
844,27	27,89
844,45	30,97
844,63	14,58
844,81	19,70
844,99	17,04
845,17	34,45
845,35	19,50
845,53	24,62
845,71	30,76
845,89	23,59
846,07	7,62
846,25	9,87
846,43	6,80
846,61	28,71
846,79	-5,90
846,97	30,76
847,15	19,91
847,33	3,52
847,51	6,18
847,69	3,32
847,87	34,86
848,05	1,47
848,23	25,85
848,41	11,30
848,58	-22,90
848,76	16,42
848,94	14,38
849,12	0,66
849,30	4,14
849,48	28,92
849,66	13,35
849,84	26,87
850,02	13,35
850,20	18,27
850,38	-2,83
850,56	13,76
850,74	3,11
850,92	3,11
851,10	-5,49
851,27	-7,54
851,45	22,36
851,63	25,03
851,81	2,50
851,99	16,63
852,17	10,69
852,35	2,09
852,53	27,48
852,71	6,80
852,89	9,67
853,07	4,14
853,24	2,09
853,42	0,45
853,60	7,00
853,78	39,98
853,96	-0,16
854,14	20,32
854,32	18,88
854,50	26,25
854,68	0,04
854,86	34,45
855,03	10,28
855,21	10,90
855,39	12,74
855,57	11,51
855,75	-5,49
855,93	24,82
856,11	14,99
856,29	32,40
856,47	11,30
856,64	21,34
856,82	11,10
857,00	10,90
857,18	20,93
857,36	17,45
857,54	24,21
857,72	-14,29
857,90	8,64
858,07	33,01
858,25	7,00
858,43	6,39
858,61	20,93
858,79	12,74
858,97	4,75
859,15	2,91
859,32	-10,20
859,50	13,35
859,68	4,34
859,86	12,12
860,04	2,91
860,22	32,19
860,40	19,50
860,57	19,70
860,75	1,47
860,93	20,52
861,11	-6,92
861,29	17,86
861,47	8,23
861,64	35,68
861,82	11,30
862,00	29,12
862,18	6,39
862,36	16,42
862,54	6,39
862,71	11,92
862,89	13,76
863,07	12,53
863,25	2,91
863,43	4,96
863,61	-28,02
863,78	5,78
863,96	8,64
864,14	27,89
864,32	8,44
864,50	-7,54
864,67	15,61
864,85	6,39
865,03	1,27
865,21	4,75
865,39	1,88
865,57	-10,81
865,74	-13,89
865,92	12,12
866,10	-0,57
866,28	17,04
866,46	-7,54
866,63	-3,44
866,81	-4,05
866,99	9,67
867,17	17,86
867,34	-2,01
867,52	2,91
867,70	14,38
867,88	26,25
868,06	9,26
868,23	22,57
868,41	15,40
868,59	13,56
868,77	16,02
868,95	10,69
869,12	28,30
869,30	17,65
869,48	3,93
869,66	5,37
869,83	5,98
870,01	-7,33
870,19	21,14
870,37	6,59
870,55	24,00
870,72	19,29
870,90	-7,33
871,08	-13,07
871,26	8,03
871,43	11,10
871,61	20,32
871,79	12,94
871,97	20,32
872,14	19,91
872,32	27,69
872,50	-12,66
872,68	12,94
872,85	16,83
873,03	33,42
873,21	10,28
873,39	16,63
873,56	13,56
873,74	42,02
873,92	-11,63
874,10	13,76
874,27	15,40
874,45	2,70
874,63	0,25
874,80	3,93
874,98	16,42
875,16	-7,33
875,34	9,67
875,51	8,23
875,69	3,93
875,87	2,70
876,05	3,93
876,22	21,14
876,40	1,06
876,58	-0,37
876,75	1,06
876,93	30,56
877,11	-7,74
877,29	-0,16
877,46	-1,39
877,64	-5,08
877,82	-7,33
877,99	-4,05
878,17	10,90
878,35	17,86
878,52	21,14
878,70	24,21
878,88	12,94
879,06	4,55
879,23	3,32
879,41	26,66
879,59	10,08
879,76	8,85
879,94	-7,13
880,12	14,17
880,29	11,10
880,47	-20,64
880,65	13,76
880,82	13,35
881,00	2,91
881,18	1,27
881,36	-5,69
881,53	14,99
881,71	10,08
881,89	10,90
882,06	20,73
882,24	4,14
882,42	-2,21
882,59	17,04
882,77	7,21
882,95	2,09
883,12	7,21
883,30	27,07
883,48	13,97
883,65	17,24
883,83	2,91
884,01	28,51
884,18	-17,37
884,36	36,09
884,54	13,76
884,71	21,34
884,89	10,69
885,06	19,70
885,24	25,44
885,42	4,55
885,59	10,49
885,77	23,18
885,95	6,80
886,12	11,30
886,30	10,28
886,48	13,35
886,65	-15,32
886,83	9,05
887,01	0,45
887,18	0,86
887,36	12,94
887,53	4,75
887,71	17,86
887,89	19,50
888,06	3,32
888,24	6,80
888,42	1,06
888,59	18,88
888,77	6,59
888,94	-4,05
889,12	5,57
889,30	9,87
889,47	15,61
889,65	23,59
889,82	29,74
890,00	10,69
890,18	-9,38
890,35	5,16
890,53	1,88
890,71	-5,28
890,88	5,57
891,06	-4,87
891,23	14,17
891,41	15,40
891,59	5,78
891,76	25,03
891,94	-2,01
892,11	0,04
892,29	-2,42
892,46	41,00
892,64	-2,62
892,82	13,35
892,99	11,10
893,17	1,06
893,34	20,52
893,52	10,69
893,70	11,10
893,87	4,75
894,05	9,67
894,22	18,06
894,40	-6,10
894,57	-0,98
894,75	4,14
894,93	13,97
895,10	-7,13
895,28	13,56
895,45	15,61
895,63	10,49
895,80	18,88
895,98	20,11
896,16	6,39
896,33	29,12
896,51	4,34
896,68	17,45
896,86	14,17
897,03	13,97
897,21	15,81
897,38	10,69
897,56	12,74
897,74	29,53
897,91	9,67
898,09	-7,74
898,26	17,24
898,44	22,16
898,61	8,03
898,79	15,40
898,96	11,71
899,14	0,86
899,31	23,59
899,49	20,52
899,67	-9,17
899,84	33,22
900,02	-2,62
900,19	14,58
900,37	-6,92
900,54	25,64
900,72	-10,61
900,89	14,38
901,07	2,09
901,24	13,97
901,42	-2,01
901,59	-7,13
901,77	32,40
901,94	26,66
902,12	-0,98
902,29	13,97
902,47	0,25
902,64	-17,57
902,82	-14,29
902,99	9,26
903,17	7,00
903,34	13,76
903,52	19,29
903,69	-3,03
903,87	-13,89
904,04	20,32
904,22	10,90
904,39	6,59
904,57	7,62
904,74	-2,42
904,92	-10,20
905,09	10,69
905,27	15,61
905,44	-1,39
905,62	22,98
905,79	-5,90
905,97	19,91
906,14	2,50
906,32	20,93
906,49	3,93
906,67	1,06
906,84	38,54
907,02	-4,05
907,19	8,03
907,37	16,02
907,54	2,50
907,72	2,09
907,89	16,83
908,06	12,12
908,24	10,28
908,41	-1,80
908,59	18,68
908,76	-16,75
908,94	19,50
909,11	18,88
909,29	9,26
909,46	-8,97
909,64	-14,09
909,81	1,47
909,99	19,29
910,16	15,61
910,33	-8,36
910,51	-5,49
910,68	-1,39
910,86	5,37
911,03	14,38
911,21	-2,21
911,38	10,90
911,56	15,40
911,73	-0,98
911,90	6,59
912,08	15,81
912,25	7,21
912,43	11,92
912,60	21,54
912,78	-7,54
912,95	-5,08
913,12	35,06
913,30	5,57
913,47	24,00
913,65	-1,39
913,82	-9,58
914,00	8,23
914,17	4,34
914,34	2,70
914,52	12,33
914,69	12,74
914,87	10,08
915,04	7,62
915,21	-14,29
915,39	31,58
915,56	17,65
915,74	8,23
915,91	14,58
916,08	12,74
916,26	19,09
916,43	-14,29
916,61	35,68
916,78	8,64
916,95	-3,85
917,13	19,29
917,30	1,27
917,48	11,51
917,65	15,40
917,82	-11,63
918,00	11,92
918,17	7,21
918,35	24,21
918,52	17,24
918,69	7,62
918,87	3,11
919,04	2,09
919,22	22,57
919,39	26,05
919,56	-5,28
919,74	18,06
919,91	16,02
920,08	2,29
920,26	5,57
920,43	-7,13
920,61	-10,40
920,78	27,07
920,95	11,71
921,13	-10,20
921,30	-7,13
921,47	0,66
921,65	-3,65
921,82	14,79
921,99	-0,16
922,17	-2,21
922,34	9,67
922,51	24,41
922,69	-4,46
922,86	2,91
923,04	16,83
923,21	3,32
923,38	0,25
923,56	25,44
923,73	-21,05
923,90	11,92
924,08	3,73
924,25	3,32
924,42	10,49
924,60	-16,34
924,77	0,66
924,94	9,05
925,12	5,98
925,29	16,22
925,46	-17,57
925,64	-10,40
925,81	26,87
925,98	21,34
926,16	11,51
926,33	-3,44
926,50	8,23
926,68	2,91
926,85	-15,11
927,02	11,10
927,19	12,53
927,37	14,99
927,54	20,11
927,71	2,91
927,89	5,78
928,06	8,23
928,23	7,82
928,41	12,12
928,58	1,47
928,75	10,28
928,93	5,16
929,10	-5,90
929,27	7,21
929,44	20,73
929,62	-8,15
929,79	35,27
929,96	4,96
930,14	17,45
930,31	29,33
930,48	-4,87
930,66	31,17
930,83	-2,01
931,00	14,17
931,17	1,68
931,35	-5,90
931,52	32,19
931,69	25,64
931,87	5,16
932,04	-17,16
932,21	31,17
932,38	11,30
932,56	10,90
932,73	-26,58
932,90	41,82
933,07	23,39
933,25	41,61
933,42	3,11
933,59	8,03
933,77	2,29
933,94	-1,60
934,11	11,30
934,28	20,32
934,46	16,83
934,63	9,05
934,80	17,45
934,97	9,46
935,15	10,90
935,32	20,93
935,49	4,75
935,66	-0,98
935,84	-14,29
936,01	11,10
936,18	-0,57
936,35	15,61
936,53	13,97
936,70	10,08
936,87	19,91
937,04	18,47
937,22	-7,74
937,39	25,64
937,56	23,59
937,73	3,32
937,91	30,35
938,08	5,16
938,25	4,34
938,42	10,90
938,59	10,90
938,77	-5,49
938,94	7,62
939,11	-16,55
939,28	23,39
939,46	14,99
939,63	8,85
939,80	-2,01
939,97	3,93
940,14	-21,46
940,32	-17,78
940,49	4,96
940,66	19,29
940,83	-7,95
941,00	11,10
941,18	19,29
941,35	2,91
941,52	5,37
941,69	-2,83
941,87	8,03
942,04	-0,57
942,21	-1,39
942,38	7,62
942,55	22,98
942,73	15,61
942,90	12,33
943,07	-6,72
943,24	20,11
943,41	-24,13
943,58	5,16
943,76	-7,74
943,93	-0,57
944,10	19,70
944,27	30,76
944,44	2,91
944,62	19,09
944,79	28,71
944,96	-3,85
945,13	23,18
945,30	-16,75
945,47	15,81
945,65	8,23
945,82	-5,90
945,99	-4,67
946,16	22,16
946,33	-0,98
946,50	-7,13
946,68	23,18
946,85	-14,50
947,02	26,46
947,19	4,14
947,36	22,98
947,53	1,68
947,71	12,12
947,88	13,56
948,05	14,58
948,22	8,85
948,39	1,06
948,56	8,44
948,74	9,46
948,91	29,12
949,08	6,39
949,25	0,04
949,42	5,98
949,59	13,35
949,76	3,52
949,94	4,34
950,11	-1,19
950,28	13,97
950,45	-3,65
950,62	14,38
950,79	14,79
950,96	-9,17
951,14	-5,28
951,31	-1,60
951,48	3,93
951,65	1,68
951,82	11,71
951,99	23,59
952,16	27,48
952,33	13,97
952,51	4,55
952,68	13,97
952,85	25,03
953,02	-3,03
953,19	14,38
953,36	12,53
953,53	13,15
953,70	21,34
953,87	14,17
954,05	21,75
954,22	19,91
954,39	-9,58
954,56	8,44
954,73	24,82
954,90	-18,60
955,07	1,27
955,24	5,37
955,41	10,28
955,58	13,56
955,76	8,64
955,93	10,49
956,10	13,76
956,27	1,88
956,44	-2,21
956,61	8,03
956,78	10,69
956,95	3,73
957,12	11,30
957,29	6,39
957,46	24,00
957,64	-3,24
957,81	19,29
957,98	15,81
958,15	18,06
958,32	-8,15
958,49	6,39
958,66	-8,56
958,83	12,74
959,00	2,09
959,17	6,59
959,34	-5,08
959,51	0,25
959,68	23,39
959,85	6,59
960,03	13,35
960,20	11,51
960,37	15,40
960,54	16,22
960,71	16,02
960,88	18,27
961,05	11,92
961,22	-12,04
961,39	4,14
961,56	21,95
961,73	5,78
961,90	-8,15
962,07	-1,39
962,24	12,53
962,41	14,99
962,58	21,95
962,75	16,63
962,92	0,86
963,09	13,76
963,26	-2,62
963,44	27,69
963,61	29,12
963,78	-0,16
963,95	7,21
964,12	26,25
964,29	-4,46
964,46	14,17
964,63	7,00
964,80	0,66
964,97	4,96
965,14	-0,16
965,31	10,90
965,48	6,80
965,65	-0,78
965,82	15,81
965,99	7,41
966,16	24,00
966,33	7,82
966,50	-2,83
966,67	-5,49
966,84	-2,21
967,01	5,98
967,18	9,67
967,35	18,88
967,52	-1,39
967,69	3,93
967,86	-5,49
968,03	34,04
968,20	-0,16
968,37	-9,99
968,54	5,37
968,71	-0,16
968,88	12,12
969,05	-7,13
969,22	18,88
969,39	11,51
969,56	5,78
969,73	5,37
969,90	7,62
970,07	11,10
970,24	-8,15
970,41	2,09
970,58	8,85
970,75	2,91
970,92	2,29
971,09	-4,46
971,26	13,76
971,43	15,61
971,60	27,89
971,77	9,87
971,94	-7,95
972,11	-0,57
972,28	12,33
972,45	15,81
972,62	7,62
972,79	1,68
972,96	-4,87
973,12	-0,57
973,29	9,46
973,46	-3,65
973,63	3,32
973,80	5,98
973,97	7,82
974,14	11,71
974,31	-1,60
974,48	2,29
974,65	25,03
974,82	-4,46
974,99	15,61
975,16	26,66
975,33	4,75
975,50	28,30
975,67	0,45
975,84	-7,13
976,01	19,29
976,18	5,37
976,35	18,88
976,51	5,78
976,68	17,45
976,85	4,14
977,02	14,17
977,19	2,70
977,36	5,16
977,53	2,50
977,70	2,91
977,87	8,64
978,04	-1,39
978,21	-1,80
978,38	1,88
978,55	2,29
978,72	0,04
978,88	9,67
979,05	14,17
979,22	21,54
979,39	13,76
979,56	6,18
979,73	5,37
979,90	16,42
980,07	21,54
980,24	-0,57
980,41	33,42
980,58	42,64
980,75	21,54
980,91	7,82
981,08	-11,22
981,25	3,52
981,42	0,04
981,59	7,00
981,76	9,05
981,93	2,09
982,10	8,64
982,27	-7,13
982,44	-4,87
982,60	-4,87
982,77	6,59
982,94	23,39
983,11	1,68
983,28	-2,42
983,45	-6,72
983,62	28,92
983,79	3,11
983,95	10,28
984,12	15,40
984,29	4,34
984,46	3,52
984,63	-5,90
984,80	18,68
984,97	13,76
985,14	23,59
985,30	-2,42
985,47	1,06
985,64	-2,42
985,81	13,35
985,98	-7,33
986,15	11,92
986,32	7,62
986,49	25,44
986,65	5,37
986,82	-6,31
986,99	7,82
987,16	10,08
987,33	-0,16
987,50	18,88
987,67	11,71
987,83	22,77
988,00	14,99
988,17	32,81
988,34	25,44
988,51	-16,14
988,68	1,06
988,84	11,10
989,01	10,28
989,18	24,82
989,35	13,15
989,52	-9,99
989,69	-13,07
989,86	-2,83
990,02	-3,65
990,19	28,92
990,36	19,50
990,53	43,25
990,70	12,12
990,87	42,84
991,03	1,06
991,20	13,35
991,37	1,68
991,54	15,20
991,71	10,28
991,87	19,50
992,04	12,12
992,21	20,93
992,38	31,99
992,55	-0,98
992,72	-15,11
992,88	-4,67
993,05	4,14
993,22	10,90
993,39	20,11
993,56	33,42
993,72	5,98
993,89	17,24
994,06	-0,57
994,23	5,78
994,40	8,85
994,56	2,70
994,73	12,53
994,90	8,03
995,07	-8,36
995,24	17,65
995,40	0,86
995,57	19,09
995,74	2,09
995,91	8,44
996,08	1,27
996,24	14,79
996,41	15,81
996,58	5,57
996,75	-6,92
996,92	-15,11
997,08	-0,98
997,25	11,30
997,42	32,19
997,59	3,52
997,75	8,03
997,92	8,44
998,09	-3,03
998,26	2,91
998,43	17,65
998,59	-6,51
998,76	-9,99
998,93	2,09
999,10	2,50
999,26	5,16
999,43	22,77
999,60	8,03
999,77	46,53
999,93	19,29
1000,10	-2,21
1000,27	15,81
1000,44	-16,55
1000,60	6,18
1000,77	16,83
1000,94	16,42
1001,11	8,64
1001,28	12,74
1001,44	-3,65
1001,61	1,06
1001,78	-13,27
1001,95	5,57
1002,11	-4,46
1002,28	-3,24
1002,45	13,97
1002,61	1,47
1002,78	4,96
1002,95	12,53
1003,12	16,42
1003,28	18,68
1003,45	11,10
1003,62	16,83
1003,79	-0,37
1003,95	14,58
1004,12	3,11
1004,29	4,96
1004,46	15,61
1004,62	16,42
1004,79	5,57
1004,96	13,97
1005,12	-8,97
1005,29	-5,69
1005,46	8,03
1005,63	-2,21
1005,79	14,99
1005,96	30,56
1006,13	5,78
1006,29	29,94
1006,46	-8,97
1006,63	14,99
1006,80	11,71
1006,96	-9,99
1007,13	21,75
1007,30	18,27
1007,46	29,53
1007,63	26,87
1007,80	17,45
1007,97	16,42
1008,13	-16,34
1008,30	-3,03
1008,47	26,46
1008,63	-1,60
1008,80	11,92
1008,97	-6,31
1009,13	5,98
1009,30	11,51
1009,47	-8,15
1009,64	-5,28
1009,80	12,74
1009,97	13,15
1010,14	9,67
1010,30	22,57
1010,47	13,76
1010,64	3,52
1010,80	17,45
1010,97	14,79
1011,14	-11,84
1011,30	34,86
1011,47	3,73
1011,64	11,71
1011,80	8,85
1011,97	9,46
1012,14	22,16
1012,30	-3,65
1012,47	7,00
1012,64	13,35
1012,80	8,03
1012,97	28,92
1013,14	25,44
1013,30	28,92
1013,47	7,62
1013,64	12,74
1013,80	-3,65
1013,97	3,93
1014,14	17,45
1014,30	9,46
1014,47	13,15
1014,64	-2,01
1014,80	-4,87
1014,97	-1,39
1015,14	-4,46
1015,30	11,51
1015,47	7,41
1015,64	32,81
1015,80	3,11
1015,97	17,65
1016,13	-9,99
1016,30	7,21
1016,47	-7,33
1016,63	-1,80
1016,80	5,57
1016,97	12,12
1017,13	8,64
1017,30	17,45
1017,47	-3,65
1017,63	10,08
1017,80	21,14
1017,96	21,14
1018,13	-0,16
1018,30	19,50
1018,46	-6,31
1018,63	13,76
1018,80	16,83
1018,96	27,69
1019,13	-0,16
1019,29	-10,40
1019,46	7,21
1019,63	4,55
1019,79	6,39
1019,96	27,89
1020,13	-3,65
1020,29	25,03
1020,46	4,55
1020,62	3,93
1020,79	10,69
1020,96	32,19
1021,12	4,55
1021,29	13,76
1021,45	22,57
1021,62	12,74
1021,79	3,73
1021,95	-12,45
1022,12	12,74
1022,28	5,78
1022,45	13,35
1022,62	24,41
1022,78	11,92
1022,95	-8,15
1023,11	16,83
1023,28	10,28
1023,45	7,62
1023,61	14,38
1023,78	10,08
1023,94	13,76
1024,11	-15,32
1024,27	21,95
1024,44	-0,57
1024,61	24,62
1024,77	8,23
1024,94	-8,77
1025,10	-4,67
1025,27	-1,60
1025,43	3,11
1025,60	9,05
1025,77	-1,19
1025,93	9,05
1026,10	8,64
1026,26	5,16
1026,43	20,73
1026,59	21,75
1026,76	-12,04
1026,93	5,98
1027,09	13,56
1027,26	6,18
1027,42	16,22
1027,59	10,08
1027,75	-9,17
1027,92	15,40
1028,08	19,29
1028,25	22,36
1028,42	2,09
1028,58	4,96
1028,75	29,74
1028,91	10,49
1029,08	1,27
1029,24	12,12
1029,41	4,34
1029,57	12,94
1029,74	19,50
1029,91	8,23
1030,07	-2,42
1030,24	23,18
1030,40	-9,99
1030,57	-6,31
1030,73	8,44
1030,90	16,22
1031,06	0,45
1031,23	7,00
1031,39	11,30
1031,56	26,46
1031,72	0,86
1031,89	24,00
1032,05	15,20
1032,22	10,08
1032,38	27,48
1032,55	21,14
1032,72	26,66
1032,88	25,03
1033,05	0,66
1033,21	-0,57
1033,38	2,50
1033,54	32,40
1033,71	0,25
1033,87	32,40
1034,04	14,38
1034,20	9,67
1034,37	4,34
1034,53	-3,65
1034,70	13,35
1034,86	9,87
1035,03	3,73
1035,19	31,99
1035,36	2,29
1035,52	8,23
1035,69	16,22
1035,85	16,83
1036,02	0,86
1036,18	-7,95
1036,35	24,00
1036,51	25,23
1036,68	21,34
1036,84	-1,80
1037,01	-11,63
1037,17	10,69
1037,34	-13,07
1037,50	-0,78
1037,67	1,88
>>>>>Finisci Dati dello Spettro Elaborati<<<<<
