File Dati SpectraSuite
++++++++++++++++++++++++++++++++++++
Data: Mon Feb 25 16:42:40 CET 2019
Utente: Studente
Spettro Scuro Presente: Si
Spettro di Riferimento Presente: No
Numero di Componenti Spettri Campionati: 1
Spettrometri: USB4F01341
Tempo di integrazione (usec): 1700 (USB4F01341)
Media Spettri: 60 (USB4F01341)
Appiattimento Boxcar: 0 (USB4F01341)
Correggi Oscurità Elettronica: Si (USB4F01341)
Strobo/Lampada Abilitato: No (USB4F01341)
Correct for Detector Non-linearity: No (USB4F01341)
Correggi Stray Light: No (USB4F01341)
Numero di Pixel nello Spettro Elaborato: 3648
>>>>>Comincia Dati dello Spettro Elaborati<<<<<
337,57	-0,48
337,79	-0,48
338,02	-0,48
338,24	-7,58
338,47	4,50
338,69	-8,20
338,92	0,06
339,14	7,95
339,36	1,33
339,59	2,97
339,81	-3,66
340,04	-3,55
340,26	1,26
340,49	-0,72
340,71	1,19
340,93	0,51
341,16	0,37
341,38	-6,28
341,61	4,71
341,83	-1,30
342,05	1,40
342,28	-2,97
342,50	0,20
342,73	-0,62
342,95	2,35
343,17	-12,60
343,40	7,61
343,62	-6,69
343,85	8,73
344,07	-6,66
344,29	9,69
344,52	0,10
344,74	1,50
344,97	-3,90
345,19	5,35
345,41	-1,98
345,64	2,45
345,86	-5,64
346,08	1,87
346,31	-5,98
346,53	0,41
346,76	6,72
346,98	4,84
347,20	-5,12
347,43	12,25
347,65	2,18
347,87	-0,21
348,10	-0,38
348,32	1,16
348,54	7,16
348,77	8,29
348,99	5,05
349,21	-0,41
349,44	0,27
349,66	10,88
349,88	0,92
350,11	-1,23
350,33	-5,26
350,55	-0,11
350,78	-2,77
351,00	11,05
351,22	-4,07
351,45	6,82
351,67	-7,31
351,89	2,32
352,12	2,45
352,34	9,11
352,56	-6,52
352,79	-0,04
353,01	-0,58
353,23	2,25
353,45	-2,97
353,68	5,66
353,90	-8,30
354,12	4,40
354,35	2,66
354,57	7,20
354,79	-2,33
355,01	16,41
355,24	-1,44
355,46	5,70
355,68	-2,97
355,91	-0,24
356,13	-5,16
356,35	11,91
356,57	1,36
356,80	15,46
357,02	-3,86
357,24	4,50
357,46	1,19
357,69	5,35
357,91	-4,41
358,13	3,78
358,35	-6,01
358,58	-1,98
358,80	2,93
359,02	0,10
359,24	0,85
359,47	-1,98
359,69	-0,69
359,91	6,14
360,13	-0,11
360,36	5,29
360,58	2,45
360,80	7,44
361,02	5,35
361,25	2,76
361,47	0,82
361,69	2,04
361,91	-0,48
362,13	7,91
362,36	-0,11
362,58	1,09
362,80	0,58
363,02	10,44
363,25	4,77
363,47	-5,53
363,69	0,44
363,91	4,26
364,13	8,63
364,36	6,65
364,58	-6,08
364,80	5,25
365,02	3,20
365,24	6,86
365,47	-9,70
365,69	3,55
365,91	-3,28
366,13	11,57
366,35	10,03
366,57	3,20
366,80	-1,81
367,02	14,43
367,24	-1,85
367,46	7,20
367,68	1,53
367,90	2,49
368,13	0,37
368,35	1,70
368,57	3,78
368,79	19,18
369,01	-9,08
369,23	-0,96
369,46	3,31
369,68	7,44
369,90	6,82
370,12	4,40
370,34	2,52
370,56	4,60
370,78	-9,73
371,01	5,32
371,23	0,17
371,45	4,91
371,67	2,86
371,89	6,45
372,11	-0,72
372,33	14,78
372,56	-5,60
372,78	3,89
373,00	-8,74
373,22	13,79
373,44	-1,10
373,66	9,79
373,88	3,24
374,10	5,83
374,32	11,36
374,55	-3,49
374,77	-1,37
374,99	-1,13
375,21	5,87
375,43	4,16
375,65	0,99
375,87	5,46
376,09	-1,06
376,31	-4,41
376,53	-1,61
376,75	1,02
376,98	0,61
377,20	5,39
377,42	-2,50
377,64	19,18
377,86	-0,89
378,08	-1,47
378,30	4,09
378,52	-4,13
378,74	1,02
378,96	16,07
379,18	-3,72
379,40	10,58
379,62	-0,58
379,84	7,54
380,07	3,99
380,29	6,07
380,51	-8,57
380,73	5,49
380,95	-0,58
381,17	5,63
381,39	-2,97
381,61	5,87
381,83	-2,70
382,05	-6,49
382,27	1,36
382,49	3,65
382,71	2,42
382,93	4,54
383,15	3,78
383,37	5,39
383,59	-1,54
383,81	7,78
384,03	3,85
384,25	10,61
384,47	5,59
384,69	17,13
384,91	3,85
385,13	3,55
385,35	6,31
385,57	11,50
385,79	1,12
386,01	9,11
386,23	1,43
386,45	0,58
386,67	2,11
386,89	-7,72
387,11	-1,47
387,33	0,30
387,55	3,58
387,77	13,51
387,99	3,27
388,21	8,80
388,43	2,86
388,65	-2,05
388,87	2,49
389,09	4,43
389,31	6,92
389,53	16,86
389,75	-3,59
389,97	7,47
390,19	-2,56
390,41	9,59
390,63	10,54
390,85	12,73
391,07	2,11
391,29	5,46
391,51	0,47
391,72	10,27
391,94	-0,17
392,16	3,75
392,38	4,40
392,60	5,53
392,82	-2,73
393,04	5,49
393,26	-1,13
393,48	11,23
393,70	-3,69
393,92	0,51
394,14	3,34
394,36	8,53
394,58	-2,56
394,80	11,05
395,01	-3,96
395,23	8,26
395,45	0,71
395,67	3,20
395,89	-7,89
396,11	3,78
396,33	8,19
396,55	8,32
396,77	5,70
396,99	9,04
397,21	0,51
397,42	11,64
397,64	1,09
397,86	4,19
398,08	5,93
398,30	8,19
398,52	-2,36
398,74	6,28
398,96	3,27
399,17	6,31
399,39	6,07
399,61	14,78
399,83	-0,35
400,05	2,79
400,27	-0,93
400,49	2,32
400,71	3,20
400,92	8,09
401,14	4,36
401,36	5,66
401,58	7,54
401,80	9,76
402,02	0,82
402,24	14,50
402,45	2,08
402,67	8,77
402,89	4,23
403,11	-4,30
403,33	2,66
403,55	10,41
403,76	6,45
403,98	13,55
404,20	3,65
404,42	3,14
404,64	-6,66
404,86	5,12
405,07	1,26
405,29	10,68
405,51	-5,33
405,73	3,78
405,95	-1,13
406,17	2,15
406,38	4,50
406,60	4,13
406,82	4,47
407,04	1,36
407,26	6,69
407,47	7,95
407,69	2,73
407,91	3,38
408,13	1,43
408,35	11,57
408,56	-6,90
408,78	10,71
409,00	3,51
409,22	13,07
409,44	7,57
409,65	-1,30
409,87	5,42
410,09	3,20
410,31	1,12
410,52	8,29
410,74	-3,93
410,96	-1,16
411,18	3,89
411,40	4,95
411,61	-0,00
411,83	5,70
412,05	2,25
412,27	14,43
412,48	-0,07
412,70	4,13
412,92	0,41
413,14	9,66
413,35	10,03
413,57	1,40
413,79	-1,51
414,01	1,40
414,22	8,15
414,44	9,76
414,66	14,98
414,87	0,41
415,09	-2,46
415,31	5,32
415,53	-1,34
415,74	8,90
415,96	2,28
416,18	11,09
416,40	-5,84
416,61	6,21
416,83	-4,51
417,05	5,63
417,26	3,65
417,48	13,72
417,70	2,62
417,92	1,63
418,13	0,99
418,35	4,64
418,57	3,85
418,78	5,35
419,00	-1,37
419,22	-1,92
419,43	5,35
419,65	6,34
419,87	-0,96
420,09	5,29
420,30	-4,58
420,52	9,08
420,74	-1,95
420,95	7,78
421,17	8,26
421,39	0,41
421,60	1,60
421,82	8,32
422,04	3,03
422,25	6,00
422,47	6,21
422,69	6,99
422,90	1,74
423,12	9,93
423,34	-3,18
423,55	4,54
423,77	9,04
423,99	1,05
424,20	7,88
424,42	13,14
424,64	7,57
424,85	5,12
425,07	7,03
425,28	2,93
425,50	3,55
425,72	4,40
425,93	-0,99
426,15	-1,10
426,37	10,78
426,58	5,46
426,80	0,88
427,01	-0,28
427,23	-0,21
427,45	4,64
427,66	3,00
427,88	10,34
428,10	0,34
428,31	1,63
428,53	-3,04
428,74	6,00
428,96	-1,51
429,18	14,13
429,39	-3,11
429,61	7,23
429,82	-1,57
430,04	1,57
430,26	9,45
430,47	-2,33
430,69	-5,43
430,90	10,20
431,12	10,34
431,34	4,40
431,55	6,45
431,77	6,58
431,98	2,42
432,20	7,27
432,41	6,75
432,63	1,43
432,85	-3,11
433,06	6,34
433,28	-0,82
433,49	2,28
433,71	3,82
433,92	0,64
434,14	2,18
434,35	5,29
434,57	2,28
434,79	3,38
435,00	0,03
435,22	4,88
435,43	0,17
435,65	0,37
435,86	2,18
436,08	10,20
436,29	-2,12
436,51	4,71
436,72	-10,14
436,94	8,15
437,16	1,70
437,37	10,27
437,59	-0,82
437,80	12,86
438,02	5,22
438,23	6,89
438,45	7,33
438,66	3,20
438,88	-2,63
439,09	5,35
439,31	4,09
439,52	14,57
439,74	-0,04
439,95	8,26
440,17	-3,83
440,38	7,61
440,60	6,69
440,81	7,54
441,03	-7,34
441,24	1,05
441,46	1,43
441,67	0,92
441,89	7,95
442,10	3,51
442,32	2,35
442,53	10,85
442,75	5,29
442,96	5,18
443,18	2,25
443,39	8,05
443,61	0,92
443,82	9,62
444,04	5,93
444,25	2,39
444,46	-0,41
444,68	11,33
444,89	3,61
445,11	7,91
445,32	3,55
445,54	15,39
445,75	-0,76
445,97	11,64
446,18	-4,78
446,40	6,34
446,61	2,52
446,82	4,98
447,04	2,32
447,25	3,89
447,47	-3,38
447,68	1,02
447,90	2,62
448,11	7,33
448,32	1,98
448,54	12,80
448,75	-0,35
448,97	8,53
449,18	1,57
449,40	11,12
449,61	-2,91
449,82	2,73
450,04	-6,22
450,25	3,96
450,47	5,46
450,68	-2,36
450,89	-2,12
451,11	12,93
451,32	-0,28
451,54	-0,17
451,75	-0,52
451,96	7,91
452,18	3,48
452,39	4,33
452,61	11,77
452,82	11,26
453,03	-1,20
453,25	10,30
453,46	11,29
453,68	7,85
453,89	-0,96
454,10	9,59
454,32	-5,84
454,53	1,09
454,74	8,36
454,96	7,57
455,17	-2,77
455,39	7,54
455,60	4,64
455,81	1,16
456,03	3,99
456,24	14,98
456,45	2,69
456,67	4,47
456,88	-1,10
457,09	9,28
457,31	2,76
457,52	1,33
457,73	8,73
457,95	4,23
458,16	-0,58
458,37	6,58
458,59	5,25
458,80	10,68
459,01	2,15
459,23	1,53
459,44	-11,37
459,65	3,99
459,87	9,86
460,08	15,90
460,29	5,87
460,51	14,13
460,72	4,47
460,93	11,50
461,15	2,69
461,36	1,36
461,57	4,91
461,79	4,84
462,00	4,09
462,21	8,09
462,42	2,93
462,64	2,56
462,85	-1,92
463,06	10,00
463,28	4,13
463,49	13,92
463,70	-5,98
463,92	2,42
464,13	-0,04
464,34	5,83
464,55	6,96
464,77	3,38
464,98	-0,21
465,19	11,05
465,40	1,67
465,62	9,42
465,83	7,33
466,04	9,52
466,26	1,40
466,47	9,31
466,68	-2,33
466,89	-0,62
467,11	1,57
467,32	6,11
467,53	6,72
467,74	-0,04
467,96	-0,21
468,17	15,12
468,38	2,73
468,59	4,33
468,81	2,86
469,02	8,43
469,23	-1,40
469,44	9,08
469,66	-5,12
469,87	-2,46
470,08	2,15
470,29	6,24
470,50	5,46
470,72	3,20
470,93	-3,86
471,14	9,89
471,35	-3,35
471,57	-0,76
471,78	-1,68
471,99	7,78
472,20	-1,34
472,41	4,16
472,63	6,82
472,84	1,40
473,05	3,48
473,26	2,69
473,47	-1,57
473,69	1,29
473,90	-0,31
474,11	4,88
474,32	0,58
474,53	2,42
474,75	3,38
474,96	8,05
475,17	2,66
475,38	5,66
475,59	5,59
475,80	10,65
476,02	0,20
476,23	2,52
476,44	8,15
476,65	1,12
476,86	1,57
477,08	7,03
477,29	1,94
477,50	10,71
477,71	-1,03
477,92	4,84
478,13	-5,81
478,34	1,26
478,56	-1,44
478,77	-1,71
478,98	5,97
479,19	2,42
479,40	6,89
479,61	0,34
479,83	0,34
480,04	6,38
480,25	8,46
480,46	3,00
480,67	-1,85
480,88	5,18
481,09	-2,80
481,30	4,64
481,52	-2,33
481,73	5,32
481,94	5,29
482,15	3,99
482,36	7,51
482,57	2,11
482,78	0,51
482,99	6,41
483,21	5,42
483,42	12,42
483,63	8,09
483,84	2,83
484,05	-5,50
484,26	5,01
484,47	8,26
484,68	1,43
484,89	-0,07
485,10	9,79
485,32	-1,71
485,53	7,85
485,74	1,50
485,95	0,71
486,16	4,06
486,37	2,86
486,58	6,96
486,79	10,13
487,00	8,56
487,21	14,13
487,42	0,68
487,63	1,26
487,85	3,27
488,06	3,78
488,27	3,14
488,48	5,05
488,69	12,69
488,90	12,90
489,11	0,17
489,32	-1,57
489,53	6,45
489,74	0,61
489,95	3,44
490,16	4,06
490,37	-6,39
490,58	14,74
490,79	-4,92
491,00	2,15
491,21	6,92
491,42	11,50
491,63	8,56
491,84	6,17
492,06	-0,89
492,27	6,45
492,48	-4,48
492,69	5,42
492,90	10,99
493,11	2,56
493,32	6,17
493,53	0,34
493,74	5,87
493,95	-3,76
494,16	-3,35
494,37	-1,03
494,58	1,29
494,79	-0,07
495,00	-9,66
495,21	3,96
495,42	6,04
495,63	9,25
495,84	4,06
496,05	8,43
496,26	-1,85
496,47	13,82
496,68	1,74
496,89	3,24
497,10	6,92
497,31	5,25
497,52	0,41
497,73	8,63
497,94	-4,51
498,15	14,30
498,36	7,71
498,57	7,44
498,78	10,95
498,98	8,36
499,19	2,56
499,40	12,97
499,61	-2,87
499,82	-1,27
500,03	1,05
500,24	2,93
500,45	4,43
500,66	-3,93
500,87	12,25
501,08	8,80
501,29	1,26
501,50	0,20
501,71	-7,58
501,92	21,09
502,13	-1,10
502,34	17,34
502,55	4,43
502,76	5,93
502,97	11,87
503,17	-1,61
503,38	1,63
503,59	7,78
503,80	-0,11
504,01	6,89
504,22	-4,68
504,43	6,89
504,64	2,45
504,85	11,50
505,06	1,09
505,27	-2,97
505,48	4,50
505,68	3,89
505,89	2,86
506,10	10,13
506,31	7,51
506,52	7,47
506,73	9,14
506,94	16,76
507,15	5,29
507,36	10,47
507,57	3,85
507,77	8,70
507,98	-0,65
508,19	2,49
508,40	-0,79
508,61	12,52
508,82	7,51
509,03	0,44
509,24	-2,09
509,45	5,05
509,65	7,51
509,86	-0,69
510,07	-0,04
510,28	-3,21
510,49	-1,64
510,70	1,09
510,91	6,00
511,11	10,71
511,32	1,63
511,53	18,43
511,74	4,77
511,95	3,34
512,16	7,85
512,37	2,93
512,57	6,00
512,78	10,61
512,99	8,80
513,20	7,27
513,41	-3,79
513,62	13,41
513,82	-0,41
514,03	4,43
514,24	3,99
514,45	12,52
514,66	2,73
514,87	8,02
515,07	-1,47
515,28	4,60
515,49	2,08
515,70	2,18
515,91	-1,51
516,11	5,39
516,32	-4,24
516,53	10,37
516,74	-0,35
516,95	12,52
517,16	10,27
517,36	15,53
517,57	-2,26
517,78	13,21
517,99	-7,72
518,20	4,67
518,40	4,57
518,61	4,77
518,82	-4,10
519,03	5,32
519,23	1,09
519,44	12,93
519,65	12,01
519,86	6,72
520,07	2,79
520,27	6,17
520,48	6,96
520,69	2,56
520,90	-5,06
521,10	8,26
521,31	0,78
521,52	8,02
521,73	-2,97
521,94	7,16
522,14	1,74
522,35	-3,11
522,56	0,54
522,77	7,81
522,97	0,64
523,18	5,35
523,39	4,54
523,60	7,91
523,80	8,94
524,01	14,33
524,22	5,05
524,43	6,21
524,63	1,60
524,84	3,85
525,05	-3,38
525,25	9,89
525,46	2,32
525,67	10,68
525,88	3,58
526,08	8,73
526,29	6,00
526,50	5,76
526,71	-1,47
526,91	5,29
527,12	2,18
527,33	12,80
527,53	3,03
527,74	6,07
527,95	3,07
528,16	8,56
528,36	3,17
528,57	8,77
528,78	-1,78
528,98	9,04
529,19	3,27
529,40	-1,44
529,60	5,83
529,81	1,57
530,02	-1,13
530,22	4,13
530,43	8,87
530,64	1,70
530,85	5,90
531,05	5,87
531,26	-3,96
531,47	4,71
531,67	0,13
531,88	4,77
532,09	1,43
532,29	-0,86
532,50	6,00
532,71	9,76
532,91	8,70
533,12	14,78
533,33	-1,13
533,53	2,90
533,74	-1,51
533,95	5,93
534,15	5,42
534,36	9,72
534,56	-0,99
534,77	1,36
534,98	-8,64
535,18	6,38
535,39	-4,34
535,60	0,37
535,80	1,16
536,01	1,29
536,22	0,30
536,42	6,11
536,63	1,91
536,83	-1,57
537,04	-1,64
537,25	5,97
537,45	3,34
537,66	6,99
537,87	-1,06
538,07	9,08
538,28	-0,11
538,48	7,44
538,69	2,39
538,90	2,73
539,10	2,42
539,31	12,15
539,51	-3,35
539,72	13,75
539,93	1,09
540,13	4,95
540,34	-1,44
540,54	6,86
540,75	-4,85
540,96	14,33
541,16	5,35
541,37	4,33
541,57	4,19
541,78	-0,04
541,99	3,07
542,19	4,60
542,40	1,09
542,60	9,04
542,81	-3,11
543,01	1,33
543,22	-7,21
543,43	9,83
543,63	4,36
543,84	6,17
544,04	-0,07
544,25	5,80
544,45	2,49
544,66	7,23
544,87	3,34
545,07	10,68
545,28	5,90
545,48	-0,82
545,69	4,02
545,89	8,26
546,10	7,61
546,30	5,70
546,51	0,51
546,71	12,42
546,92	0,27
547,13	5,39
547,33	0,58
547,54	8,05
547,74	6,41
547,95	1,43
548,15	1,91
548,36	10,03
548,56	1,16
548,77	10,54
548,97	-0,55
549,18	2,15
549,38	-4,41
549,59	4,43
549,79	4,47
550,00	6,28
550,20	2,66
550,41	8,87
550,61	-7,21
550,82	-0,24
551,02	1,74
551,23	8,49
551,43	-3,11
551,64	4,88
551,84	1,87
552,05	14,43
552,25	6,58
552,46	12,90
552,66	-4,75
552,87	10,13
553,07	-1,23
553,28	7,13
553,48	-0,86
553,69	12,76
553,89	6,65
554,10	18,09
554,30	-2,43
554,51	4,09
554,71	4,19
554,92	7,54
555,12	-0,48
555,32	4,64
555,53	1,77
555,73	-3,28
555,94	-0,28
556,14	11,46
556,35	0,51
556,55	1,43
556,76	0,17
556,96	7,03
557,17	-3,08
557,37	16,65
557,57	10,13
557,78	3,89
557,98	-1,88
558,19	11,12
558,39	3,72
558,60	13,55
558,80	4,19
559,00	6,21
559,21	1,05
559,41	8,02
559,62	-5,16
559,82	2,52
560,03	1,12
560,23	8,22
560,43	6,52
560,64	7,30
560,84	2,49
561,05	8,19
561,25	0,92
561,45	10,37
561,66	-0,07
561,86	6,65
562,07	-4,24
562,27	6,79
562,47	2,18
562,68	6,11
562,88	3,75
563,09	2,52
563,29	0,75
563,49	0,88
563,70	5,29
563,90	12,08
564,11	2,49
564,31	4,54
564,51	2,39
564,72	7,71
564,92	5,93
565,12	6,24
565,33	8,32
565,53	10,13
565,74	8,05
565,94	3,96
566,14	1,74
566,35	9,38
566,55	-0,52
566,75	5,22
566,96	3,14
567,16	6,58
567,36	-0,58
567,57	1,98
567,77	14,23
567,98	6,41
568,18	1,33
568,38	8,39
568,59	-1,47
568,79	3,41
568,99	3,20
569,20	7,06
569,40	-3,96
569,60	7,54
569,81	11,12
570,01	2,15
570,21	-6,08
570,42	-2,87
570,62	4,26
570,82	11,46
571,03	-0,14
571,23	4,84
571,43	7,03
571,63	3,96
571,84	3,03
572,04	9,38
572,24	0,88
572,45	8,29
572,65	-0,79
572,85	-0,04
573,06	-3,18
573,26	1,60
573,46	2,45
573,67	2,21
573,87	-2,63
574,07	18,46
574,27	4,23
574,48	-0,21
574,68	2,21
574,88	0,27
575,09	0,13
575,29	2,73
575,49	8,49
575,69	7,57
575,90	7,98
576,10	11,43
576,30	3,72
576,51	6,89
576,71	-4,95
576,91	7,78
577,11	4,36
577,32	2,62
577,52	7,03
577,72	9,28
577,92	2,21
578,13	5,39
578,33	-2,43
578,53	-0,55
578,73	-4,48
578,94	5,25
579,14	-8,54
579,34	6,62
579,54	8,15
579,75	2,04
579,95	4,67
580,15	7,78
580,35	5,35
580,56	5,12
580,76	0,88
580,96	17,54
581,16	-4,13
581,37	-1,68
581,57	3,51
581,77	4,06
581,97	1,02
582,17	9,42
582,38	7,68
582,58	14,47
582,78	1,16
582,98	14,43
583,19	-2,77
583,39	3,96
583,59	0,44
583,79	15,15
583,99	4,77
584,20	7,16
584,40	-5,94
584,60	14,43
584,80	-2,56
585,00	11,23
585,21	12,73
585,41	0,06
585,61	6,00
585,81	6,41
586,01	0,37
586,22	1,87
586,42	3,44
586,62	6,28
586,82	4,19
587,02	0,78
587,22	-0,31
587,43	7,03
587,63	-4,54
587,83	9,08
588,03	6,04
588,23	12,86
588,43	5,80
588,64	8,63
588,84	-4,13
589,04	3,55
589,24	-4,61
589,44	3,10
589,64	9,25
589,85	8,29
590,05	17,88
590,25	-3,79
590,45	9,79
590,65	11,02
590,85	3,03
591,05	6,69
591,26	-6,01
591,46	2,25
591,66	10,20
591,86	5,59
592,06	0,99
592,26	0,20
592,46	4,81
592,67	6,86
592,87	-2,12
593,07	5,12
593,27	9,45
593,47	11,33
593,67	5,08
593,87	3,07
594,07	-2,80
594,28	9,52
594,48	1,67
594,68	12,01
594,88	1,05
595,08	2,56
595,28	-2,26
595,48	4,54
595,68	-1,20
595,88	2,08
596,08	5,01
596,29	10,27
596,49	8,94
596,69	8,46
596,89	6,62
597,09	7,78
597,29	2,69
597,49	-1,30
597,69	2,93
597,89	4,16
598,09	7,71
598,29	8,12
598,50	-0,24
598,70	-0,31
598,90	-1,20
599,10	8,02
599,30	3,85
599,50	12,11
599,70	4,43
599,90	3,07
600,10	0,37
600,30	9,28
600,50	-0,69
600,70	5,12
600,90	9,42
601,10	15,05
601,30	-6,86
601,50	8,12
601,71	-3,04
601,91	7,54
602,11	0,47
602,31	6,14
602,51	0,95
602,71	11,12
602,91	2,08
603,11	15,73
603,31	7,71
603,51	3,34
603,71	-7,21
603,91	4,40
604,11	2,08
604,31	8,29
604,51	0,68
604,71	5,59
604,91	7,37
605,11	1,29
605,31	-4,75
605,51	6,62
605,71	-1,54
605,91	9,69
606,11	4,47
606,31	14,13
606,51	6,45
606,71	6,99
606,91	3,24
607,11	5,15
607,31	-1,71
607,51	3,85
607,71	-2,33
607,91	4,81
608,11	2,04
608,31	6,58
608,51	-0,04
608,71	9,83
608,91	1,87
609,11	12,15
609,31	-1,06
609,51	5,70
609,71	5,53
609,91	13,27
610,11	3,20
610,31	7,33
610,51	8,43
610,71	5,08
610,91	3,92
611,11	15,66
611,31	2,11
611,51	9,79
611,71	2,11
611,91	5,53
612,11	1,16
612,31	5,83
612,51	-1,64
612,71	5,46
612,90	1,09
613,10	9,28
613,30	-3,18
613,50	8,43
613,70	2,73
613,90	6,04
614,10	2,01
614,30	6,41
614,50	2,18
614,70	10,99
614,90	6,82
615,10	9,08
615,30	-1,68
615,50	7,61
615,70	-0,21
615,90	12,59
616,09	9,14
616,29	12,76
616,49	1,33
616,69	2,69
616,89	2,18
617,09	12,59
617,29	7,64
617,49	8,26
617,69	3,72
617,89	3,65
618,09	6,17
618,28	7,91
618,48	5,18
618,68	17,03
618,88	-2,77
619,08	10,58
619,28	5,15
619,48	5,32
619,68	0,37
619,88	6,48
620,08	7,47
620,27	9,25
620,47	0,78
620,67	6,99
620,87	-1,61
621,07	9,55
621,27	5,87
621,47	11,53
621,67	0,41
621,86	8,60
622,06	2,86
622,26	11,57
622,46	5,32
622,66	9,69
622,86	6,86
623,06	17,81
623,25	-0,99
623,45	8,32
623,65	5,22
623,85	7,06
624,05	11,43
624,25	11,74
624,45	13,34
624,64	8,60
624,84	19,42
625,04	24,88
625,24	22,86
625,44	56,11
625,64	131,24
625,83	210,32
626,03	620,77
626,23	862,02
626,43	1907,47
626,63	2451,00
626,83	4006,03
627,02	4649,50
627,22	6400,99
627,42	7402,72
627,62	9114,65
627,82	10359,99
628,02	12472,77
628,21	13834,78
628,41	15906,64
628,61	17697,24
628,81	20285,91
629,01	21991,60
629,20	24342,43
629,40	26404,66
629,60	29217,72
629,80	30694,68
630,00	33336,32
630,19	35750,43
630,39	38400,81
630,59	39708,10
630,79	42198,46
630,99	43967,32
631,18	46378,50
631,38	48242,56
631,58	50342,31
631,78	51256,59
631,98	52918,18
632,17	54391,04
632,37	55207,43
632,57	56316,51
632,77	56407,03
632,96	57168,57
633,16	56795,05
633,36	57060,43
633,56	57021,79
633,76	56917,21
633,95	56020,99
634,15	55699,08
634,35	54620,24
634,55	53552,95
634,74	52388,37
634,94	50850,10
635,14	49239,17
635,34	47194,96
635,53	45574,88
635,73	44026,68
635,93	41828,80
636,13	38785,38
636,32	37093,45
636,52	34651,59
636,72	32801,29
636,92	30395,61
637,11	28334,70
637,31	25293,50
637,51	23654,51
637,70	21073,63
637,90	19469,39
638,10	17080,43
638,30	15415,64
638,49	13327,46
638,69	11917,19
638,89	9945,14
639,09	8637,34
639,28	7020,23
639,48	5908,42
639,68	4476,89
639,87	3750,34
640,07	2258,87
640,27	1799,03
640,47	802,97
640,66	611,66
640,86	206,57
641,06	134,00
641,25	73,14
641,45	43,31
641,65	38,02
641,84	33,00
642,04	32,59
642,24	6,11
642,44	24,13
642,63	21,57
642,83	24,09
643,03	12,22
643,22	13,92
643,42	14,67
643,62	18,84
643,81	13,10
644,01	22,25
644,21	1,53
644,40	12,76
644,60	7,68
644,80	20,41
644,99	12,22
645,19	13,51
645,39	5,63
645,58	15,59
645,78	9,96
645,98	16,24
646,17	2,66
646,37	16,04
646,57	6,96
646,76	17,51
646,96	5,56
647,16	9,25
647,35	10,07
647,55	21,29
647,75	4,91
647,94	9,25
648,14	2,62
648,33	11,98
648,53	7,47
648,73	11,29
648,92	8,56
649,12	17,27
649,32	12,08
649,51	7,98
649,71	12,97
649,90	9,25
650,10	14,33
650,30	14,84
650,49	6,04
650,69	11,53
650,89	2,39
651,08	9,18
651,28	3,99
651,47	7,64
651,67	12,73
651,87	11,16
652,06	-1,03
652,26	9,93
652,45	10,00
652,65	9,11
652,85	0,99
653,04	11,46
653,24	11,67
653,43	7,57
653,63	6,00
653,83	5,97
654,02	7,23
654,22	5,42
654,41	7,30
654,61	5,08
654,81	-1,78
655,00	13,55
655,20	2,42
655,39	8,94
655,59	-2,15
655,78	7,06
655,98	2,93
656,18	16,28
656,37	1,50
656,57	16,35
656,76	3,34
656,96	7,68
657,15	4,64
657,35	6,79
657,55	4,81
657,74	4,64
657,94	5,25
658,13	5,70
658,33	6,86
658,52	6,55
658,72	-4,27
658,91	10,51
659,11	5,87
659,30	7,47
659,50	7,16
659,70	15,36
659,89	2,69
660,09	6,55
660,28	8,56
660,48	0,75
660,67	3,55
660,87	5,59
661,06	4,43
661,26	5,59
661,45	10,61
661,65	10,24
661,84	6,41
662,04	17,47
662,23	3,10
662,43	9,35
662,62	5,01
662,82	6,92
663,01	6,00
663,21	8,12
663,41	1,26
663,60	6,28
663,80	1,12
663,99	8,29
664,19	3,96
664,38	5,59
664,58	0,78
664,77	3,17
664,97	5,46
665,16	8,05
665,35	11,29
665,55	12,45
665,74	3,41
665,94	0,75
666,13	0,13
666,33	12,35
666,52	0,54
666,72	-0,28
666,91	-0,17
667,11	0,95
667,30	5,22
667,50	9,11
667,69	1,46
667,89	8,53
668,08	5,42
668,28	1,70
668,47	2,69
668,67	5,93
668,86	1,77
669,05	16,58
669,25	3,10
669,44	11,36
669,64	-0,79
669,83	2,97
670,03	-0,93
670,22	10,92
670,42	2,76
670,61	12,90
670,81	-2,02
671,00	9,21
671,19	1,19
671,39	4,13
671,58	6,21
671,78	-0,76
671,97	-7,27
672,17	6,99
672,36	-2,43
672,55	5,46
672,75	-1,23
672,94	1,87
673,14	2,69
673,33	17,13
673,53	7,37
673,72	2,28
673,91	8,63
674,11	3,51
674,30	0,71
674,50	7,81
674,69	5,93
674,88	3,89
675,08	-6,25
675,27	10,20
675,47	2,35
675,66	4,95
675,85	2,15
676,05	5,32
676,24	2,35
676,44	6,07
676,63	-1,64
676,82	9,62
677,02	2,97
677,21	3,96
677,41	10,78
677,60	19,08
677,79	6,62
677,99	3,17
678,18	-1,44
678,37	17,27
678,57	3,55
678,76	9,52
678,96	3,24
679,15	13,38
679,34	2,15
679,54	2,35
679,73	2,25
679,92	9,38
680,12	-0,96
680,31	9,79
680,51	2,49
680,70	10,47
680,89	0,88
681,09	10,78
681,28	9,25
681,47	5,76
681,67	-0,58
681,86	3,48
682,05	10,44
682,25	6,65
682,44	-8,74
682,63	6,11
682,83	2,11
683,02	10,10
683,21	0,30
683,41	8,15
683,60	12,63
683,79	9,69
683,99	4,36
684,18	9,89
684,37	13,44
684,57	6,55
684,76	-3,69
684,95	5,42
685,15	7,85
685,34	4,81
685,53	6,38
685,73	8,63
685,92	6,48
686,11	-0,24
686,31	-8,03
686,50	3,61
686,69	2,01
686,88	11,36
687,08	-1,13
687,27	4,60
687,46	1,57
687,66	6,34
687,85	8,12
688,04	3,38
688,24	0,44
688,43	8,05
688,62	-4,13
688,81	12,39
689,01	0,78
689,20	2,25
689,39	9,35
689,59	2,04
689,78	2,15
689,97	7,78
690,16	-0,14
690,36	11,64
690,55	-0,04
690,74	6,41
690,93	1,33
691,13	3,96
691,32	0,34
691,51	1,87
691,70	2,42
691,90	0,20
692,09	3,34
692,28	11,98
692,48	3,51
692,67	4,09
692,86	3,58
693,05	12,76
693,25	7,40
693,44	3,00
693,63	6,14
693,82	10,58
694,01	-2,05
694,21	9,28
694,40	7,91
694,59	7,81
694,78	0,64
694,98	7,13
695,17	3,68
695,36	2,59
695,55	3,00
695,75	3,92
695,94	-1,27
696,13	11,57
696,32	-1,34
696,51	6,58
696,71	-0,45
696,90	1,33
697,09	0,78
697,28	1,87
697,48	-4,82
697,67	5,08
697,86	7,03
698,05	0,64
698,24	-0,04
698,44	8,46
698,63	4,60
698,82	-0,38
699,01	0,68
699,20	5,05
699,40	7,16
699,59	11,23
699,78	1,40
699,97	4,30
700,16	-4,20
700,36	6,55
700,55	9,45
700,74	5,76
700,93	-2,05
701,12	3,48
701,31	-1,78
701,51	3,89
701,70	-0,38
701,89	8,19
702,08	2,11
702,27	13,10
702,46	2,35
702,66	7,95
702,85	-7,10
703,04	13,89
703,23	2,32
703,42	-1,20
703,61	1,26
703,81	8,49
704,00	2,04
704,19	6,52
704,38	-7,79
704,57	7,03
704,76	10,85
704,96	1,98
705,15	-0,17
705,34	7,78
705,53	-3,14
705,72	6,58
705,91	11,33
706,10	7,13
706,30	4,40
706,49	6,24
706,68	2,39
706,87	4,36
707,06	-4,92
707,25	6,21
707,44	-3,08
707,63	6,52
707,83	2,01
708,02	6,14
708,21	-1,34
708,40	12,59
708,59	6,31
708,78	10,27
708,97	-2,56
709,16	11,70
709,35	2,01
709,55	5,97
709,74	1,94
709,93	4,36
710,12	10,95
710,31	3,96
710,50	1,74
710,69	-1,95
710,88	1,05
711,07	10,51
711,26	9,25
711,46	3,99
711,65	-1,30
711,84	3,61
712,03	-0,04
712,22	2,15
712,41	3,34
712,60	9,31
712,79	-1,30
712,98	13,68
713,17	5,53
713,36	8,02
713,55	0,88
713,75	8,73
713,94	-3,11
714,13	3,89
714,32	1,46
714,51	6,69
714,70	7,54
714,89	1,63
715,08	1,05
715,27	6,86
715,46	-4,00
715,65	7,40
715,84	4,54
716,03	4,33
716,22	9,45
716,41	8,05
716,60	2,21
716,79	0,44
716,99	2,90
717,18	2,45
717,37	5,90
717,56	6,72
717,75	0,10
717,94	11,02
718,13	6,24
718,32	6,11
718,51	2,18
718,70	5,35
718,89	-1,71
719,08	10,41
719,27	2,76
719,46	4,98
719,65	-2,26
719,84	8,43
720,03	1,26
720,22	5,63
720,41	1,77
720,60	7,54
720,79	5,66
720,98	7,88
721,17	-0,86
721,36	3,44
721,55	10,58
721,74	6,11
721,93	1,12
722,12	6,58
722,31	2,15
722,50	8,12
722,69	3,34
722,88	7,74
723,07	3,44
723,26	3,68
723,45	3,14
723,64	-5,64
723,83	-7,82
724,02	9,52
724,21	-5,19
724,40	-2,19
724,59	4,95
724,78	8,70
724,97	2,93
725,16	3,34
725,35	-1,13
725,54	4,30
725,73	-7,10
725,92	10,65
726,11	1,77
726,30	6,28
726,49	3,17
726,68	12,35
726,87	-1,16
727,06	16,48
727,25	4,88
727,43	9,01
727,62	-2,15
727,81	13,38
728,00	0,23
728,19	3,82
728,38	5,22
728,57	4,23
728,76	-1,98
728,95	12,69
729,14	7,57
729,33	-0,41
729,52	4,77
729,71	5,25
729,90	-1,16
730,09	5,80
730,28	7,81
730,47	6,69
730,65	4,71
730,84	9,79
731,03	1,67
731,22	7,81
731,41	-0,69
731,60	10,99
731,79	4,88
731,98	6,72
732,17	-1,68
732,36	11,43
732,55	-3,83
732,74	6,52
732,92	2,45
733,11	11,23
733,30	14,84
733,49	4,98
733,68	4,84
733,87	10,37
734,06	-0,69
734,25	2,08
734,44	4,47
734,63	8,80
734,81	2,83
735,00	15,01
735,19	-2,19
735,38	8,73
735,57	2,42
735,76	9,96
735,95	-1,10
736,14	6,21
736,33	4,98
736,51	-1,51
736,70	-2,70
736,89	1,46
737,08	-1,47
737,27	4,43
737,46	1,40
737,65	-0,38
737,83	-3,72
738,02	2,04
738,21	-1,95
738,40	10,85
738,59	3,03
738,78	4,02
738,97	5,05
739,16	5,32
739,34	0,34
739,53	4,84
739,72	4,26
739,91	5,18
740,10	0,23
740,29	0,20
740,47	7,74
740,66	10,75
740,85	9,01
741,04	5,22
741,23	4,36
741,42	5,25
741,60	-2,46
741,79	13,07
741,98	8,70
742,17	5,15
742,36	4,74
742,55	5,15
742,73	-5,91
742,92	10,58
743,11	5,46
743,30	7,54
743,49	-0,65
743,68	5,12
743,86	-7,14
744,05	9,14
744,24	2,52
744,43	-2,94
744,62	-2,77
744,80	5,32
744,99	3,51
745,18	4,84
745,37	5,56
745,56	-2,87
745,74	3,51
745,93	1,91
746,12	9,45
746,31	7,57
746,50	-5,74
746,68	3,78
746,87	3,85
747,06	5,97
747,25	-5,70
747,44	7,57
747,62	2,79
747,81	2,21
748,00	1,98
748,19	2,35
748,37	1,60
748,56	-0,55
748,75	8,22
748,94	-1,64
749,13	-11,92
749,31	5,32
749,50	1,22
749,69	3,99
749,88	6,34
750,06	5,46
750,25	0,10
750,44	11,91
750,63	-1,95
750,81	7,71
751,00	-1,13
751,19	5,22
751,38	0,30
751,56	-0,86
751,75	5,97
751,94	16,31
752,13	10,68
752,31	10,10
752,50	2,32
752,69	6,45
752,88	1,19
753,06	9,59
753,25	-3,49
753,44	5,05
753,63	-4,68
753,81	10,44
754,00	5,12
754,19	10,44
754,37	-9,83
754,56	12,97
754,75	3,51
754,94	8,84
755,12	4,95
755,31	10,03
755,50	3,24
755,69	8,77
755,87	-2,29
756,06	3,99
756,25	3,41
756,43	4,23
756,62	-0,14
756,81	8,39
756,99	7,95
757,18	10,82
757,37	-1,51
757,56	17,47
757,74	5,59
757,93	2,73
758,12	5,90
758,30	9,18
758,49	11,09
758,68	10,24
758,86	-0,99
759,05	2,04
759,24	6,75
759,42	8,36
759,61	-2,53
759,80	13,00
759,99	-4,20
760,17	14,43
760,36	11,02
760,55	3,65
760,73	6,82
760,92	6,65
761,11	9,86
761,29	7,10
761,48	-0,21
761,67	8,09
761,85	9,89
762,04	1,60
762,23	8,22
762,41	-2,46
762,60	0,85
762,79	5,90
762,97	6,31
763,16	7,78
763,34	0,30
763,53	2,18
763,72	-4,48
763,90	12,28
764,09	3,07
764,28	12,35
764,46	-4,20
764,65	7,16
764,84	3,92
765,02	4,13
765,21	7,91
765,40	1,60
765,58	9,38
765,77	-1,74
765,95	-5,77
766,14	9,66
766,33	-4,75
766,51	12,90
766,70	3,96
766,89	4,77
767,07	4,71
767,26	1,77
767,44	0,41
767,63	6,52
767,82	-5,57
768,00	1,12
768,19	-1,74
768,37	6,79
768,56	1,12
768,75	8,22
768,93	9,48
769,12	-2,19
769,30	-0,28
769,49	4,77
769,68	3,27
769,86	12,52
770,05	4,77
770,23	8,77
770,42	-1,61
770,61	2,62
770,79	1,60
770,98	6,24
771,16	6,41
771,35	1,87
771,54	-1,64
771,72	3,72
771,91	-2,12
772,09	8,36
772,28	2,69
772,46	5,90
772,65	4,64
772,84	9,42
773,02	0,13
773,21	11,74
773,39	-3,04
773,58	8,36
773,76	-2,50
773,95	10,20
774,13	3,75
774,32	7,30
774,51	1,43
774,69	3,55
774,88	-6,69
775,06	7,23
775,25	-2,43
775,43	4,95
775,62	0,27
775,80	-1,51
775,99	-2,97
776,18	13,85
776,36	-0,00
776,55	1,40
776,73	3,03
776,92	3,03
777,10	4,74
777,29	9,83
777,47	6,21
777,66	4,40
777,84	0,64
778,03	12,86
778,21	8,09
778,40	2,73
778,58	10,92
778,77	9,28
778,95	-4,99
779,14	3,07
779,33	8,29
779,51	7,33
779,70	-3,01
779,88	0,54
780,07	-1,78
780,25	2,90
780,44	-4,17
780,62	4,02
780,81	-1,51
780,99	3,51
781,18	1,74
781,36	10,58
781,55	-1,27
781,73	9,96
781,92	-3,35
782,10	4,19
782,29	1,57
782,47	3,24
782,66	3,20
782,84	5,25
783,03	-7,17
783,21	9,72
783,39	-6,90
783,58	19,55
783,76	3,20
783,95	9,21
784,13	5,22
784,32	15,49
784,50	4,60
784,69	4,16
784,87	0,68
785,06	9,86
785,24	5,70
785,43	3,82
785,61	2,45
785,80	12,15
785,98	6,21
786,17	1,94
786,35	-5,33
786,53	13,34
786,72	-8,37
786,90	10,07
787,09	1,33
787,27	16,89
787,46	6,07
787,64	5,15
787,83	6,92
788,01	7,30
788,19	3,89
788,38	6,55
788,56	0,85
788,75	1,98
788,93	-4,30
789,12	11,91
789,30	11,12
789,49	16,72
789,67	3,99
789,85	-3,72
790,04	11,81
790,22	10,75
790,41	7,13
790,59	7,16
790,77	1,53
790,96	12,52
791,14	4,77
791,33	4,54
791,51	2,83
791,70	7,57
791,88	3,03
792,06	11,60
792,25	-2,02
792,43	3,89
792,62	2,83
792,80	2,79
792,98	-1,34
793,17	6,72
793,35	2,73
793,54	14,20
793,72	1,36
793,90	0,06
794,09	0,85
794,27	2,08
794,46	1,40
794,64	5,63
794,82	1,98
795,01	16,28
795,19	3,92
795,37	16,86
795,56	11,81
795,74	6,55
795,93	9,52
796,11	10,24
796,29	4,71
796,48	7,88
796,66	2,18
796,84	9,42
797,03	3,89
797,21	5,53
797,40	-0,00
797,58	7,33
797,76	-3,38
797,95	2,76
798,13	5,35
798,31	4,50
798,50	-3,49
798,68	3,24
798,86	9,38
799,05	-2,91
799,23	-3,96
799,42	11,70
799,60	-0,38
799,78	8,29
799,97	-4,89
800,15	8,87
800,33	-0,17
800,52	1,60
800,70	0,30
800,88	10,17
801,07	11,33
801,25	6,69
801,43	7,78
801,62	1,43
801,80	0,37
801,98	10,13
802,17	5,12
802,35	5,15
802,53	-2,02
802,72	2,69
802,90	4,33
803,08	3,51
803,26	2,86
803,45	14,67
803,63	2,62
803,81	9,86
804,00	-7,82
804,18	11,46
804,36	7,81
804,55	11,12
804,73	5,35
804,91	7,23
805,10	6,52
805,28	5,25
805,46	-3,35
805,64	6,48
805,83	1,29
806,01	1,33
806,19	-8,43
806,38	4,50
806,56	2,49
806,74	14,71
806,92	2,56
807,11	5,66
807,29	9,04
807,47	3,10
807,66	-2,50
807,84	3,38
808,02	2,04
808,20	6,99
808,39	4,47
808,57	10,92
808,75	6,21
808,94	10,44
809,12	3,24
809,30	5,76
809,48	-5,12
809,67	5,83
809,85	1,22
810,03	2,90
810,21	8,94
810,40	7,47
810,58	9,31
810,76	7,68
810,94	3,24
811,13	6,92
811,31	-3,04
811,49	8,94
811,67	7,54
811,86	11,74
812,04	5,35
812,22	3,82
812,40	2,39
812,59	4,98
812,77	-0,69
812,95	5,97
813,13	-3,90
813,32	3,85
813,50	0,99
813,68	3,00
813,86	9,62
814,04	7,98
814,23	0,47
814,41	10,10
814,59	8,29
814,77	7,16
814,96	4,13
815,14	5,18
815,32	1,53
815,50	7,27
815,68	-1,64
815,87	4,74
816,05	7,44
816,23	0,20
816,41	4,09
816,59	5,46
816,78	2,08
816,96	6,79
817,14	2,66
817,32	10,24
817,50	2,66
817,69	1,05
817,87	-3,01
818,05	-4,41
818,23	2,42
818,41	4,13
818,60	6,82
818,78	3,82
818,96	-0,58
819,14	9,11
819,32	-2,63
819,51	9,45
819,69	-3,66
819,87	-0,99
820,05	2,11
820,23	8,53
820,41	0,95
820,60	-4,54
820,78	-3,86
820,96	9,31
821,14	-4,95
821,32	3,38
821,50	4,74
821,69	6,24
821,87	2,15
822,05	11,26
822,23	1,19
822,41	4,43
822,59	4,50
822,78	5,66
822,96	-0,52
823,14	11,94
823,32	-0,14
823,50	2,97
823,68	-1,23
823,86	-0,11
824,05	-4,71
824,23	7,91
824,41	2,86
824,59	5,32
824,77	-2,46
824,95	16,48
825,13	-4,07
825,32	7,37
825,50	-6,08
825,68	-2,09
825,86	-4,34
826,04	1,53
826,22	-1,23
826,40	11,50
826,58	-3,45
826,77	20,51
826,95	7,47
827,13	0,51
827,31	-3,55
827,49	3,92
827,67	-4,30
827,85	6,45
828,03	2,35
828,22	6,04
828,40	-1,40
828,58	7,74
828,76	0,61
828,94	2,62
829,12	-0,14
829,30	-1,71
829,48	-3,93
829,66	8,56
829,84	-1,40
830,03	3,92
830,21	3,65
830,39	6,48
830,57	-0,62
830,75	16,45
830,93	0,41
831,11	4,43
831,29	5,42
831,47	11,29
831,65	-0,65
831,83	7,44
832,02	0,27
832,20	8,02
832,38	-6,35
832,56	13,55
832,74	-1,78
832,92	10,58
833,10	4,16
833,28	13,03
833,46	3,31
833,64	3,41
833,82	8,90
834,00	3,92
834,18	-0,04
834,36	-0,45
834,54	-4,00
834,73	6,48
834,91	5,08
835,09	4,95
835,27	1,12
835,45	3,48
835,63	-7,21
835,81	9,01
835,99	0,64
836,17	4,47
836,35	-4,99
836,53	7,06
836,71	3,10
836,89	3,10
837,07	-1,27
837,25	-6,86
837,43	-0,76
837,61	13,27
837,79	0,51
837,97	15,63
838,15	-0,24
838,33	13,61
838,51	3,75
838,69	7,51
838,87	6,72
839,05	2,15
839,23	5,25
839,41	11,29
839,59	3,41
839,78	4,19
839,96	4,02
840,14	9,66
840,32	3,41
840,50	1,94
840,68	5,49
840,86	9,21
841,04	-8,50
841,22	4,91
841,40	5,59
841,58	-1,47
841,76	-5,29
841,94	2,56
842,12	-0,35
842,30	12,97
842,48	0,30
842,66	10,07
842,84	0,44
843,02	13,55
843,20	4,30
843,38	11,12
843,55	-6,90
843,73	4,54
843,91	-0,00
844,09	7,88
844,27	-6,35
844,45	10,95
844,63	3,68
844,81	5,49
844,99	0,82
845,17	12,15
845,35	0,51
845,53	3,20
845,71	0,82
845,89	2,04
846,07	11,87
846,25	3,31
846,43	-2,39
846,61	3,78
846,79	13,24
846,97	4,47
847,15	8,43
847,33	12,69
847,51	2,97
847,69	-2,39
847,87	0,78
848,05	11,36
848,23	9,35
848,41	1,98
848,58	2,49
848,76	9,25
848,94	2,56
849,12	1,74
849,30	8,84
849,48	-3,86
849,66	-0,35
849,84	3,75
850,02	-0,31
850,20	-4,27
850,38	3,58
850,56	6,28
850,74	-5,40
850,92	8,05
851,10	7,64
851,27	10,65
851,45	8,63
851,63	5,18
851,81	9,42
851,99	13,03
852,17	16,79
852,35	5,25
852,53	-2,15
852,71	13,07
852,89	-0,99
853,07	2,90
853,24	-2,56
853,42	6,28
853,60	-1,81
853,78	2,32
853,96	0,03
854,14	10,03
854,32	0,44
854,50	-2,77
854,68	2,28
854,86	4,81
855,03	0,58
855,21	5,25
855,39	-0,86
855,57	4,23
855,75	-0,69
855,93	2,56
856,11	2,21
856,29	-0,11
856,47	4,40
856,64	13,14
856,82	-4,58
857,00	-2,50
857,18	3,72
857,36	6,96
857,54	3,55
857,72	7,16
857,90	4,23
858,07	7,03
858,25	4,74
858,43	-1,54
858,61	-0,07
858,79	-0,62
858,97	-1,95
859,15	5,42
859,32	-5,64
859,50	7,03
859,68	1,98
859,86	2,15
860,04	-2,50
860,22	5,90
860,40	-3,69
860,57	14,13
860,75	-1,78
860,93	4,71
861,11	-2,33
861,29	8,70
861,47	1,12
861,64	7,03
861,82	6,24
862,00	4,88
862,18	-0,89
862,36	1,77
862,54	8,53
862,71	7,51
862,89	-3,79
863,07	12,52
863,25	6,89
863,43	7,06
863,61	6,24
863,78	11,98
863,96	6,86
864,14	6,48
864,32	5,39
864,50	-0,14
864,67	4,57
864,85	2,83
865,03	4,98
865,21	6,65
865,39	3,72
865,57	3,89
865,74	-0,48
865,92	5,59
866,10	1,57
866,28	4,84
866,46	0,10
866,63	12,76
866,81	1,94
866,99	8,26
867,17	7,98
867,34	10,95
867,52	3,07
867,70	4,23
867,88	8,36
868,06	7,78
868,23	3,07
868,41	10,71
868,59	2,69
868,77	6,89
868,95	-1,20
869,12	-0,00
869,30	-2,53
869,48	10,71
869,66	-2,43
869,83	1,16
870,01	2,28
870,19	-0,93
870,37	-9,46
870,55	8,80
870,72	11,29
870,90	12,45
871,08	-5,91
871,26	11,94
871,43	3,68
871,61	13,48
871,79	4,19
871,97	7,81
872,14	3,51
872,32	4,57
872,50	-2,87
872,68	6,55
872,85	4,54
873,03	9,55
873,21	1,26
873,39	9,38
873,56	-1,44
873,74	6,58
873,92	4,91
874,10	11,84
874,27	5,97
874,45	6,86
874,63	-5,74
874,80	12,35
874,98	0,68
875,16	5,80
875,34	0,71
875,51	12,42
875,69	-1,85
875,87	8,15
876,05	1,29
876,22	10,44
876,40	1,33
876,58	6,41
876,75	2,52
876,93	10,00
877,11	-0,21
877,29	9,42
877,46	7,68
877,64	9,79
877,82	8,15
877,99	2,08
878,17	3,92
878,35	6,65
878,52	-2,87
878,70	6,52
878,88	-0,21
879,06	6,17
879,23	6,00
879,41	3,65
879,59	0,13
879,76	6,79
879,94	-4,51
880,12	10,30
880,29	4,88
880,47	5,63
880,65	6,24
880,82	9,11
881,00	1,60
881,18	4,98
881,36	-5,09
881,53	2,35
881,71	7,23
881,89	2,86
882,06	-3,45
882,24	14,74
882,42	-1,47
882,59	1,91
882,77	16,52
882,95	4,43
883,12	0,20
883,30	4,13
883,48	4,23
883,65	7,81
883,83	-1,81
884,01	7,57
884,18	0,78
884,36	11,36
884,54	3,51
884,71	3,92
884,89	2,25
885,06	0,30
885,24	-1,30
885,42	3,55
885,59	7,85
885,77	5,12
885,95	4,43
886,12	0,71
886,30	0,64
886,48	2,52
886,65	6,89
886,83	11,81
887,01	-1,20
887,18	6,79
887,36	8,87
887,53	5,29
887,71	-2,73
887,89	-2,09
888,06	0,85
888,24	7,20
888,42	1,80
888,59	4,81
888,77	0,41
888,94	6,55
889,12	1,16
889,30	11,46
889,47	-2,33
889,65	5,59
889,82	5,12
890,00	6,04
890,18	1,60
890,35	6,24
890,53	-1,10
890,71	9,25
890,88	-1,06
891,06	13,34
891,23	1,70
891,41	-2,22
891,59	10,51
891,76	-7,45
891,94	4,57
892,11	7,68
892,29	-2,67
892,46	8,26
892,64	8,80
892,82	2,83
892,99	-0,82
893,17	6,52
893,34	-3,52
893,52	8,09
893,70	7,78
893,87	-2,26
894,05	-5,70
894,22	2,52
894,40	-4,34
894,57	8,53
894,75	-6,15
894,93	1,29
895,10	1,53
895,28	5,83
895,45	6,65
895,63	15,32
895,80	-8,95
895,98	3,72
896,16	2,90
896,33	1,12
896,51	-3,52
896,68	10,00
896,86	-0,79
897,03	3,14
897,21	-4,89
897,38	6,17
897,56	-0,52
897,74	8,73
897,91	2,18
898,09	8,70
898,26	3,65
898,44	3,51
898,61	0,37
898,79	4,74
898,96	6,79
899,14	7,95
899,31	-1,74
899,49	6,21
899,67	-1,37
899,84	1,80
900,02	-4,00
900,19	0,03
900,37	2,15
900,54	7,51
900,72	-2,05
900,89	6,28
901,07	-0,86
901,24	12,86
901,42	-3,28
901,59	8,22
901,77	-0,41
901,94	10,65
902,12	9,62
902,29	4,23
902,47	-0,07
902,64	5,87
902,82	-2,15
902,99	11,23
903,17	-4,00
903,34	-1,61
903,52	-6,01
903,69	9,35
903,87	-5,77
904,04	4,81
904,22	3,75
904,39	9,28
904,57	4,84
904,74	15,29
904,92	-0,69
905,09	-2,63
905,27	-2,97
905,44	9,38
905,62	-2,39
905,79	6,89
905,97	4,23
906,14	5,42
906,32	2,56
906,49	1,36
906,67	0,61
906,84	13,58
907,02	-0,38
907,19	4,88
907,37	-8,40
907,54	11,74
907,72	5,53
907,89	5,32
908,06	2,08
908,24	9,18
908,41	6,28
908,59	6,38
908,76	7,44
908,94	15,56
909,11	-4,20
909,29	6,34
909,46	6,82
909,64	10,78
909,81	-10,89
909,99	8,70
910,16	7,06
910,33	5,87
910,51	-1,06
910,68	6,72
910,86	-3,45
911,03	2,66
911,21	2,69
911,38	10,37
911,56	2,90
911,73	11,43
911,90	-4,89
912,08	1,50
912,25	-1,03
912,43	0,27
912,60	-0,38
912,78	6,52
912,95	-2,46
913,12	-1,88
913,30	3,27
913,47	1,53
913,65	8,70
913,82	4,33
914,00	4,19
914,17	9,62
914,34	3,24
914,52	3,51
914,69	3,99
914,87	3,68
915,04	-3,42
915,21	9,72
915,39	1,33
915,56	6,96
915,74	-9,25
915,91	2,90
916,08	-1,51
916,26	9,69
916,43	-4,54
916,61	7,30
916,78	-2,94
916,95	9,86
917,13	1,46
917,30	5,01
917,48	6,17
917,65	11,91
917,82	-3,83
918,00	11,84
918,17	-11,30
918,35	10,88
918,52	-4,58
918,69	9,21
918,87	3,65
919,04	7,03
919,22	-0,58
919,39	7,95
919,56	1,02
919,74	1,91
919,91	-2,73
920,08	16,04
920,26	3,24
920,43	9,21
920,61	3,00
920,78	-1,06
920,95	2,73
921,13	9,01
921,30	-1,81
921,47	4,60
921,65	1,33
921,82	-1,34
921,99	2,97
922,17	5,15
922,34	-3,18
922,51	2,73
922,69	-3,01
922,86	5,97
923,04	5,76
923,21	11,87
923,38	0,92
923,56	6,24
923,73	5,25
923,90	10,88
924,08	0,17
924,25	3,85
924,42	4,67
924,60	18,29
924,77	4,60
924,94	9,25
925,12	0,99
925,29	13,00
925,46	-5,19
925,64	5,39
925,81	5,01
925,98	1,63
926,16	8,02
926,33	15,15
926,50	6,62
926,68	12,93
926,85	-3,83
927,02	12,18
927,19	7,51
927,37	4,36
927,54	9,14
927,71	4,57
927,89	3,44
928,06	3,65
928,23	-9,32
928,41	-0,93
928,58	-1,68
928,75	3,34
928,93	0,71
929,10	-0,31
929,27	4,67
929,44	14,37
929,62	0,41
929,79	4,81
929,96	8,73
930,14	7,78
930,31	4,60
930,48	1,91
930,66	3,61
930,83	11,64
931,00	-1,54
931,17	9,48
931,35	1,77
931,52	8,05
931,69	0,92
931,87	8,09
932,04	4,23
932,21	2,93
932,38	0,99
932,56	4,81
932,73	0,88
932,90	5,29
933,07	10,71
933,25	12,80
933,42	3,03
933,59	11,91
933,77	-2,02
933,94	10,54
934,11	4,19
934,28	10,00
934,46	-8,03
934,63	-3,14
934,80	-3,62
934,97	12,04
935,15	1,05
935,32	5,05
935,49	-0,17
935,66	7,06
935,84	-1,06
936,01	18,05
936,18	3,96
936,35	10,44
936,53	-3,45
936,70	3,65
936,87	1,33
937,04	13,03
937,22	5,29
937,39	0,41
937,56	0,13
937,73	1,53
937,91	6,89
938,08	2,73
938,25	0,61
938,42	3,38
938,59	0,41
938,77	6,00
938,94	1,09
939,11	9,11
939,28	4,98
939,46	5,29
939,63	-3,79
939,80	12,32
939,97	5,12
940,14	6,00
940,32	-1,40
940,49	2,66
940,66	11,84
940,83	6,45
941,00	3,99
941,18	6,92
941,35	-6,52
941,52	6,28
941,69	9,52
941,87	0,47
942,04	-0,62
942,21	1,80
942,38	-4,03
942,55	13,68
942,73	13,48
942,90	4,81
943,07	-0,86
943,24	3,68
943,41	0,03
943,58	1,22
943,76	2,83
943,93	5,93
944,10	1,74
944,27	4,60
944,44	-1,13
944,62	8,77
944,79	7,57
944,96	1,87
945,13	8,05
945,30	4,06
945,47	3,34
945,65	8,56
945,82	8,73
945,99	-0,00
946,16	0,34
946,33	1,43
946,50	-4,54
946,68	8,70
946,85	-0,65
947,02	6,58
947,19	6,00
947,36	10,27
947,53	5,39
947,71	3,51
947,88	-8,40
948,05	-0,69
948,22	7,10
948,39	12,15
948,56	0,13
948,74	7,40
948,91	1,91
949,08	6,07
949,25	0,30
949,42	9,35
949,59	7,71
949,76	6,72
949,94	-0,31
950,11	3,10
950,28	-3,35
950,45	7,30
950,62	3,48
950,79	3,78
950,96	3,34
951,14	12,39
951,31	5,73
951,48	8,70
951,65	-4,82
951,82	6,96
951,99	3,44
952,16	10,51
952,33	6,04
952,51	0,75
952,68	5,18
952,85	6,89
953,02	6,45
953,19	-0,00
953,36	4,84
953,53	11,23
953,70	-9,36
953,87	6,28
954,05	-1,74
954,22	5,49
954,39	-7,62
954,56	7,06
954,73	-0,35
954,90	12,73
955,07	2,42
955,24	11,81
955,41	10,44
955,58	12,39
955,76	-3,21
955,93	7,81
956,10	10,37
956,27	11,16
956,44	6,28
956,61	6,86
956,78	-2,29
956,95	6,52
957,12	-0,11
957,29	3,96
957,46	7,61
957,64	1,57
957,81	3,31
957,98	3,61
958,15	-5,16
958,32	5,73
958,49	3,10
958,66	2,86
958,83	6,34
959,00	11,53
959,17	4,81
959,34	7,40
959,51	1,29
959,68	1,57
959,85	2,35
960,03	4,33
960,20	-7,75
960,37	13,75
960,54	7,16
960,71	3,24
960,88	-0,93
961,05	4,19
961,22	-2,05
961,39	6,38
961,56	6,86
961,73	6,24
961,90	-1,95
962,07	10,47
962,24	-0,52
962,41	6,41
962,58	-6,63
962,75	5,42
962,92	1,74
963,09	-1,10
963,26	2,73
963,44	6,34
963,61	4,74
963,78	5,39
963,95	3,68
964,12	15,83
964,29	3,72
964,46	4,98
964,63	3,58
964,80	13,92
964,97	-1,27
965,14	12,86
965,31	9,62
965,48	3,61
965,65	-0,31
965,82	8,32
965,99	0,27
966,16	2,25
966,33	-0,31
966,50	12,04
966,67	-6,83
966,84	0,23
967,01	4,33
967,18	8,05
967,35	2,56
967,52	5,53
967,69	-2,60
967,86	7,78
968,03	2,18
968,20	3,68
968,37	1,80
968,54	10,20
968,71	-3,62
968,88	9,18
969,05	6,58
969,22	-2,02
969,39	-2,33
969,56	2,52
969,73	1,40
969,90	-0,93
970,07	0,30
970,24	1,94
970,41	0,06
970,58	7,23
970,75	-1,57
970,92	3,51
971,09	9,83
971,26	1,67
971,43	-4,03
971,60	11,16
971,77	-6,42
971,94	7,20
972,11	7,06
972,28	2,52
972,45	-4,41
972,62	3,82
972,79	-0,52
972,96	4,23
973,12	2,93
973,29	7,47
973,46	-4,41
973,63	5,08
973,80	4,36
973,97	3,58
974,14	5,29
974,31	-1,03
974,48	11,77
974,65	3,24
974,82	1,02
974,99	2,62
975,16	7,54
975,33	16,28
975,50	6,17
975,67	11,29
975,84	-7,31
976,01	7,71
976,18	2,56
976,35	0,17
976,51	-3,14
976,68	7,54
976,85	-1,92
977,02	7,57
977,19	6,92
977,36	2,66
977,53	2,35
977,70	4,40
977,87	-0,00
978,04	10,65
978,21	-0,41
978,38	6,96
978,55	-6,86
978,72	9,14
978,88	-4,34
979,05	0,58
979,22	-0,41
979,39	7,68
979,56	1,29
979,73	-0,82
979,90	4,09
980,07	7,91
980,24	-3,69
980,41	9,83
980,58	4,19
980,75	8,90
980,91	2,08
981,08	1,63
981,25	0,51
981,42	14,43
981,59	0,47
981,76	7,71
981,93	-3,28
982,10	4,88
982,27	3,17
982,44	12,15
982,60	6,38
982,77	7,57
982,94	-2,91
983,11	6,17
983,28	-1,44
983,45	5,46
983,62	6,17
983,79	2,83
983,95	0,61
984,12	1,05
984,29	-2,43
984,46	14,98
984,63	-4,41
984,80	0,23
984,97	-4,89
985,14	3,24
985,30	-0,52
985,47	4,06
985,64	-8,16
985,81	11,19
985,98	1,98
986,15	3,65
986,32	0,23
986,49	-1,71
986,65	6,24
986,82	2,86
986,99	1,19
987,16	12,04
987,33	-0,96
987,50	3,68
987,67	-0,38
987,83	2,59
988,00	8,53
988,17	7,51
988,34	0,34
988,51	3,10
988,68	-4,13
988,84	6,75
989,01	-1,68
989,18	6,28
989,35	2,45
989,52	11,40
989,69	4,91
989,86	5,15
990,02	2,25
990,19	-1,95
990,36	1,29
990,53	7,16
990,70	-4,48
990,87	5,39
991,03	3,14
991,20	3,92
991,37	3,14
991,54	2,83
991,71	-1,81
991,87	8,32
992,04	8,36
992,21	8,73
992,38	-3,38
992,55	3,55
992,72	-6,22
992,88	-0,14
993,05	-1,51
993,22	3,14
993,39	2,04
993,56	9,62
993,72	5,29
993,89	9,45
994,06	1,33
994,23	-0,31
994,40	-1,98
994,56	3,27
994,73	-0,82
994,90	-2,97
995,07	10,99
995,24	8,09
995,40	-0,28
995,57	4,09
995,74	4,26
995,91	5,29
996,08	9,42
996,24	10,71
996,41	1,22
996,58	-5,70
996,75	-0,86
996,92	1,57
997,08	1,16
997,25	7,27
997,42	-7,99
997,59	2,32
997,75	-1,71
997,92	14,95
998,09	-1,57
998,26	-0,52
998,43	-1,13
998,59	10,20
998,76	5,87
998,93	-1,03
999,10	-3,69
999,26	2,59
999,43	6,86
999,60	5,93
999,77	7,13
999,93	7,81
1000,10	-2,50
1000,27	2,93
1000,44	7,81
1000,60	2,25
1000,77	8,09
1000,94	6,52
1001,11	4,13
1001,28	1,94
1001,44	1,19
1001,61	7,16
1001,78	1,80
1001,95	7,20
1002,11	3,89
1002,28	5,12
1002,45	-3,42
1002,61	5,32
1002,78	-3,59
1002,95	10,78
1003,12	-1,30
1003,28	8,60
1003,45	-2,94
1003,62	12,56
1003,79	1,33
1003,95	-1,68
1004,12	-0,24
1004,29	7,47
1004,46	2,86
1004,62	-6,22
1004,79	0,85
1004,96	8,73
1005,12	-7,41
1005,29	2,76
1005,46	1,29
1005,63	7,10
1005,79	-1,61
1005,96	19,25
1006,13	4,40
1006,29	9,42
1006,46	3,41
1006,63	4,09
1006,80	3,34
1006,96	-0,35
1007,13	2,59
1007,30	1,16
1007,46	4,64
1007,63	3,38
1007,80	2,62
1007,97	5,15
1008,13	-5,57
1008,30	13,82
1008,47	11,81
1008,63	1,67
1008,80	-3,18
1008,97	3,00
1009,13	2,11
1009,30	6,58
1009,47	-3,21
1009,64	2,97
1009,80	-2,15
1009,97	16,41
1010,14	-4,30
1010,30	13,24
1010,47	-7,96
1010,64	7,57
1010,80	4,67
1010,97	1,94
1011,14	3,75
1011,30	8,12
1011,47	-2,53
1011,64	6,48
1011,80	1,60
1011,97	2,66
1012,14	2,83
1012,30	12,90
1012,47	6,75
1012,64	9,25
1012,80	-10,07
1012,97	8,49
1013,14	-3,62
1013,30	1,33
1013,47	-0,38
1013,64	7,51
1013,80	-8,81
1013,97	3,03
1014,14	7,13
1014,30	-0,86
1014,47	-1,64
1014,64	4,84
1014,80	1,70
1014,97	6,86
1015,14	6,86
1015,30	-3,96
1015,47	4,60
1015,64	10,75
1015,80	10,07
1015,97	7,78
1016,13	-5,09
1016,30	11,50
1016,47	5,22
1016,63	6,86
1016,80	-0,65
1016,97	-0,04
1017,13	0,23
1017,30	10,75
1017,47	-0,21
1017,63	7,61
1017,80	4,13
1017,96	2,83
1018,13	-2,87
1018,30	6,11
1018,46	-2,70
1018,63	7,74
1018,80	-0,89
1018,96	7,23
1019,13	2,66
1019,29	10,51
1019,46	-1,13
1019,63	6,31
1019,79	6,69
1019,96	6,92
1020,13	0,20
1020,29	6,86
1020,46	-0,17
1020,62	12,69
1020,79	0,03
1020,96	-1,68
1021,12	-5,87
1021,29	6,69
1021,45	4,54
1021,62	0,27
1021,79	5,18
1021,95	4,81
1022,12	9,04
1022,28	2,11
1022,45	-0,52
1022,62	7,16
1022,78	-2,39
1022,95	4,74
1023,11	5,05
1023,28	4,54
1023,45	-3,08
1023,61	2,15
1023,78	-2,19
1023,94	7,33
1024,11	4,84
1024,27	11,43
1024,44	-1,88
1024,61	9,89
1024,77	1,40
1024,94	10,82
1025,10	8,53
1025,27	6,82
1025,43	6,24
1025,60	8,05
1025,77	-2,94
1025,93	-4,95
1026,10	7,27
1026,26	9,38
1026,43	-2,02
1026,59	5,42
1026,76	0,44
1026,93	3,85
1027,09	-1,68
1027,26	5,18
1027,42	-0,93
1027,59	0,34
1027,75	-1,51
1027,92	10,34
1028,08	4,06
1028,25	0,58
1028,42	5,63
1028,58	3,75
1028,75	5,59
1028,91	13,92
1029,08	5,25
1029,24	4,09
1029,41	-1,37
1029,57	7,91
1029,74	3,85
1029,91	3,41
1030,07	-4,48
1030,24	12,04
1030,40	6,99
1030,57	4,30
1030,73	2,28
1030,90	9,18
1031,06	3,44
1031,23	4,77
1031,39	5,42
1031,56	-2,53
1031,72	8,43
1031,89	10,99
1032,05	10,95
1032,22	7,51
1032,38	5,73
1032,55	4,88
1032,72	2,21
1032,88	4,43
1033,05	-1,95
1033,21	4,33
1033,38	3,55
1033,54	7,20
1033,71	3,99
1033,87	6,96
1034,04	2,73
1034,20	0,64
1034,37	-2,60
1034,53	14,43
1034,70	-4,03
1034,86	8,84
1035,03	9,01
1035,19	12,83
1035,36	4,64
1035,52	-0,31
1035,69	7,10
1035,85	12,04
1036,02	-2,97
1036,18	4,77
1036,35	-5,23
1036,51	8,94
1036,68	0,75
1036,84	6,79
1037,01	-0,00
1037,17	14,84
1037,34	-3,90
1037,50	6,99
1037,67	2,52
>>>>>Finisci Dati dello Spettro Elaborati<<<<<
