File Dati SpectraSuite
++++++++++++++++++++++++++++++++++++
Data: Mon Feb 25 16:39:24 CET 2019
Utente: Studente
Spettro Scuro Presente: Si
Spettro di Riferimento Presente: No
Numero di Componenti Spettri Campionati: 1
Spettrometri: USB4F01341
Tempo di integrazione (usec): 7000 (USB4F01341)
Media Spettri: 10 (USB4F01341)
Appiattimento Boxcar: 0 (USB4F01341)
Correggi Oscurità Elettronica: Si (USB4F01341)
Strobo/Lampada Abilitato: No (USB4F01341)
Correct for Detector Non-linearity: No (USB4F01341)
Correggi Stray Light: No (USB4F01341)
Numero di Pixel nello Spettro Elaborato: 3648
>>>>>Comincia Dati dello Spettro Elaborati<<<<<
337,57	-16,59
337,79	-16,59
338,02	-16,59
338,24	-22,74
338,47	-1,23
338,69	-5,13
338,92	-7,17
339,14	1,63
339,36	3,07
339,59	-2,26
339,81	18,43
340,04	-11,07
340,26	9,41
340,49	-16,39
340,71	12,90
340,93	16,17
341,16	1,63
341,38	-5,13
341,61	12,08
341,83	-3,08
342,05	8,39
342,28	0,20
342,50	4,70
342,73	-9,02
342,95	-6,56
343,17	-11,88
343,40	11,67
343,62	1,02
343,85	-18,85
344,07	0,81
344,29	-13,52
344,52	-8,81
344,74	22,93
344,97	-12,29
345,19	4,70
345,41	-2,87
345,64	1,84
345,86	-7,17
346,08	2,04
346,31	-18,23
346,53	24,77
346,76	-2,87
346,98	-13,32
347,20	1,43
347,43	11,46
347,65	-4,10
347,87	2,45
348,10	6,96
348,32	26,21
348,54	-10,25
348,77	-1,44
348,99	14,12
349,21	14,12
349,44	34,81
349,66	1,22
349,88	-11,47
350,11	13,92
350,33	-4,31
350,55	13,31
350,78	-22,33
351,00	1,22
351,22	11,05
351,45	7,78
351,67	19,45
351,89	17,40
352,12	-15,57
352,34	18,02
352,56	2,25
352,79	14,53
353,01	3,68
353,23	31,53
353,45	6,34
353,68	7,16
353,90	22,11
354,12	8,80
354,35	21,29
354,57	2,04
354,79	12,49
355,01	20,47
355,24	-11,47
355,46	6,14
355,68	2,04
355,91	19,65
356,13	-3,08
356,35	14,94
356,57	-5,74
356,80	9,62
357,02	-12,09
357,24	21,09
357,46	2,45
357,69	15,35
357,91	-14,96
358,13	11,87
358,35	15,56
358,58	6,55
358,80	8,39
359,02	8,39
359,24	4,50
359,47	19,45
359,69	-5,33
359,91	16,58
360,13	-24,58
360,36	7,37
360,58	6,14
360,80	6,34
361,02	-3,90
361,25	19,04
361,47	6,96
361,69	-5,33
361,91	3,48
362,13	0,40
362,36	0,81
362,58	0,61
362,80	8,80
363,02	22,32
363,25	15,56
363,47	5,52
363,69	4,29
363,91	15,15
364,13	5,93
364,36	13,31
364,58	1,02
364,80	-2,67
365,02	15,56
365,24	-3,49
365,47	5,32
365,69	12,69
365,91	-14,34
366,13	11,26
366,35	32,76
366,57	27,03
366,80	-9,43
367,02	32,15
367,24	-15,98
367,46	22,93
367,68	8,60
367,90	6,34
368,13	8,19
368,35	12,49
368,57	-0,62
368,79	8,60
369,01	-8,61
369,23	6,34
369,46	-6,56
369,68	-8,20
369,90	-1,85
370,12	-7,17
370,34	7,78
370,56	6,34
370,78	6,75
371,01	9,82
371,23	-17,41
371,45	0,20
371,67	22,32
371,89	18,84
372,11	13,31
372,33	-4,92
372,56	5,52
372,78	15,56
373,00	13,31
373,22	7,37
373,44	-8,20
373,66	12,49
373,88	-10,25
374,10	12,28
374,32	10,64
374,55	1,22
374,77	5,93
374,99	-8,40
375,21	10,44
375,43	5,93
375,65	15,56
375,87	26,41
376,09	18,43
376,31	5,52
376,53	18,43
376,75	4,09
376,98	29,48
377,20	4,09
377,42	-7,99
377,64	6,55
377,86	19,65
378,08	-6,56
378,30	-2,67
378,52	12,49
378,74	-10,04
378,96	-8,20
379,18	-0,62
379,40	18,02
379,62	-3,49
379,84	4,29
380,07	-4,51
380,29	-1,44
380,51	12,08
380,73	11,26
380,95	15,76
381,17	4,29
381,39	6,55
381,61	1,02
381,83	7,37
382,05	4,70
382,27	0,81
382,49	-5,74
382,71	2,86
382,93	3,27
383,15	-3,69
383,37	6,14
383,59	-6,76
383,81	2,45
384,03	10,85
384,25	8,19
384,47	17,61
384,69	10,03
384,91	1,22
385,13	8,39
385,35	-4,72
385,57	3,88
385,79	-3,69
386,01	8,19
386,23	-7,99
386,45	-1,44
386,67	2,45
386,89	-7,38
387,11	-1,03
387,33	-5,74
387,55	-4,92
387,77	27,03
387,99	-3,69
388,21	3,68
388,43	-16,80
388,65	11,87
388,87	11,05
389,09	13,92
389,31	9,62
389,53	9,00
389,75	-1,44
389,97	5,52
390,19	-13,32
390,41	13,72
390,63	5,93
390,85	20,68
391,07	7,16
391,29	26,21
391,51	-8,20
391,72	12,49
391,94	-8,20
392,16	3,68
392,38	1,02
392,60	2,66
392,82	1,43
393,04	9,41
393,26	-5,74
393,48	1,43
393,70	13,10
393,92	1,43
394,14	2,86
394,36	3,88
394,58	5,32
394,80	4,50
395,01	3,48
395,23	18,02
395,45	17,61
395,67	10,03
395,89	5,93
396,11	3,27
396,33	-4,10
396,55	11,87
396,77	23,75
396,99	27,03
397,21	29,89
397,42	14,53
397,64	14,53
397,86	-1,03
398,08	-12,91
398,30	-9,43
398,52	5,73
398,74	10,23
398,96	-11,47
399,17	0,81
399,39	7,78
399,61	10,23
399,83	6,14
400,05	0,40
400,27	2,25
400,49	-0,21
400,71	-8,20
400,92	19,86
401,14	4,29
401,36	6,96
401,58	3,68
401,80	31,94
402,02	-1,85
402,24	15,97
402,45	10,03
402,67	5,73
402,89	-6,97
403,11	19,04
403,33	3,48
403,55	-13,11
403,76	1,22
403,98	1,22
404,20	19,65
404,42	-0,21
404,64	13,10
404,86	28,87
405,07	6,96
405,29	11,26
405,51	-22,53
405,73	-12,09
405,95	9,21
406,17	-5,74
406,38	6,55
406,60	7,16
406,82	-16,19
407,04	33,58
407,26	-0,83
407,47	3,88
407,69	10,64
407,91	3,88
408,13	0,40
408,35	16,58
408,56	10,64
408,78	-11,47
409,00	5,52
409,22	8,80
409,44	5,52
409,65	6,96
409,87	-1,64
410,09	0,61
410,31	22,93
410,52	-2,67
410,74	33,79
410,96	5,73
411,18	4,91
411,40	12,28
411,61	3,68
411,83	30,71
412,05	19,86
412,27	5,93
412,48	2,45
412,70	11,05
412,92	-15,57
413,14	-0,42
413,35	-10,86
413,57	31,74
413,79	-26,43
414,01	13,92
414,22	-12,50
414,44	14,53
414,66	10,03
414,87	-3,49
415,09	23,55
415,31	12,28
415,53	-6,35
415,74	-11,07
415,96	11,87
416,18	-3,28
416,40	-0,21
416,61	15,97
416,83	3,27
417,05	-7,99
417,26	3,27
417,48	-0,42
417,70	4,91
417,92	2,66
418,13	-5,54
418,35	11,87
418,57	1,63
418,78	10,03
419,00	5,32
419,22	15,15
419,43	-3,49
419,65	12,28
419,87	7,98
420,09	0,20
420,30	6,75
420,52	15,56
420,74	4,50
420,95	17,61
421,17	6,75
421,39	5,52
421,60	-3,90
421,82	11,46
422,04	-11,88
422,25	3,07
422,47	2,25
422,69	7,57
422,90	-3,90
423,12	22,73
423,34	-7,99
423,55	-9,22
423,77	9,00
423,99	4,29
424,20	7,57
424,42	-6,15
424,64	-3,08
424,85	18,63
425,07	-12,29
425,28	19,86
425,50	-2,87
425,72	3,68
425,93	25,59
426,15	20,06
426,37	13,31
426,58	-4,51
426,80	-5,33
427,01	22,32
427,23	-5,95
427,45	0,61
427,66	-2,87
427,88	12,90
428,10	-25,81
428,31	5,73
428,53	-4,92
428,74	4,91
428,96	9,21
429,18	-8,61
429,39	-9,63
429,61	12,28
429,82	-15,57
430,04	14,94
430,26	-12,50
430,47	18,43
430,69	5,32
430,90	-1,03
431,12	-13,11
431,34	23,34
431,55	1,02
431,77	-4,10
431,98	-10,86
432,20	6,34
432,41	2,45
432,63	11,05
432,85	-11,68
433,06	20,27
433,28	9,41
433,49	-2,26
433,71	-0,21
433,92	18,43
434,14	3,48
434,35	15,15
434,57	11,87
434,79	8,39
435,00	14,33
435,22	2,45
435,43	13,31
435,65	20,68
435,86	8,80
436,08	32,56
436,29	-18,44
436,51	24,57
436,72	-0,42
436,94	3,07
437,16	10,44
437,37	-5,13
437,59	13,72
437,80	5,11
438,02	6,96
438,23	16,58
438,45	12,69
438,66	10,23
438,88	4,09
439,09	14,74
439,31	2,66
439,52	24,36
439,74	-5,33
439,95	2,25
440,17	7,16
440,38	5,52
440,60	-6,56
440,81	1,84
441,03	-5,74
441,24	9,00
441,46	-1,44
441,67	13,51
441,89	-0,83
442,10	5,52
442,32	-1,64
442,53	-12,09
442,75	-1,23
442,96	-2,05
443,18	-7,38
443,39	22,73
443,61	27,85
443,82	22,32
444,04	1,02
444,25	1,43
444,46	13,92
444,68	25,59
444,89	3,88
445,11	22,93
445,32	8,19
445,54	2,45
445,75	3,27
445,97	-1,64
446,18	4,29
446,40	4,29
446,61	-16,80
446,82	-3,90
447,04	1,63
447,25	12,28
447,47	9,21
447,68	-4,31
447,90	-3,08
448,11	-6,15
448,32	13,72
448,54	12,28
448,75	3,68
448,97	15,76
449,18	24,57
449,40	2,45
449,61	2,86
449,82	20,06
450,04	-9,84
450,25	23,55
450,47	-1,64
450,68	14,33
450,89	2,66
451,11	6,96
451,32	-0,21
451,54	7,57
451,75	-3,90
451,96	12,49
452,18	9,21
452,39	2,86
452,61	6,96
452,82	19,24
453,03	18,63
453,25	19,04
453,46	10,03
453,68	6,96
453,89	-3,69
454,10	26,62
454,32	8,19
454,53	-1,44
454,74	12,49
454,96	7,37
455,17	-7,58
455,39	5,93
455,60	24,98
455,81	15,76
456,03	4,29
456,24	14,33
456,45	0,81
456,67	8,19
456,88	27,03
457,09	21,91
457,31	-1,03
457,52	9,82
457,73	21,09
457,95	18,84
458,16	-4,51
458,37	-12,91
458,59	2,86
458,80	28,46
459,01	17,61
459,23	11,05
459,44	10,85
459,65	9,62
459,87	15,15
460,08	1,22
460,29	-11,47
460,51	4,50
460,72	28,46
460,93	18,22
461,15	10,85
461,36	3,27
461,57	3,27
461,79	16,58
462,00	-9,22
462,21	-3,08
462,42	-6,97
462,64	11,26
462,85	-0,83
463,06	16,79
463,28	11,05
463,49	4,50
463,70	2,25
463,92	-5,33
464,13	-11,47
464,34	11,46
464,55	16,17
464,77	8,39
464,98	10,44
465,19	7,78
465,40	1,22
465,62	21,29
465,83	20,06
466,04	-10,25
466,26	3,48
466,47	4,29
466,68	-11,68
466,89	15,97
467,11	42,80
467,32	18,02
467,53	15,15
467,74	-5,13
467,96	12,49
468,17	1,43
468,38	3,68
468,59	24,98
468,81	5,11
469,02	12,69
469,23	10,03
469,44	50,37
469,66	5,32
469,87	4,70
470,08	7,57
470,29	13,51
470,50	-6,56
470,72	8,19
470,93	-1,44
471,14	1,02
471,35	-9,02
471,57	18,63
471,78	16,17
471,99	-10,86
472,20	6,96
472,41	10,64
472,63	22,11
472,84	0,61
473,05	10,85
473,26	-5,74
473,47	-5,54
473,69	-8,20
473,90	8,39
474,11	-8,81
474,32	-17,00
474,53	12,28
474,75	11,05
474,96	-1,03
475,17	6,14
475,38	22,32
475,59	22,52
475,80	11,26
476,02	4,50
476,23	13,51
476,44	9,00
476,65	-10,25
476,86	15,35
477,08	9,00
477,29	-2,05
477,50	11,26
477,71	21,29
477,92	29,07
478,13	21,29
478,34	15,56
478,56	-8,20
478,77	10,23
478,98	22,73
479,19	20,47
479,40	4,09
479,61	10,64
479,83	5,52
480,04	12,69
480,25	4,91
480,46	16,58
480,67	-10,25
480,88	14,53
481,09	11,26
481,30	13,72
481,52	1,02
481,73	11,26
481,94	13,51
482,15	-2,26
482,36	-3,08
482,57	15,15
482,78	11,87
482,99	-19,67
483,21	14,53
483,42	8,80
483,63	11,26
483,84	26,62
484,05	0,40
484,26	40,54
484,47	21,50
484,68	24,57
484,89	9,21
485,10	14,12
485,32	5,93
485,53	24,77
485,74	-4,10
485,95	11,26
486,16	6,55
486,37	-4,10
486,58	17,81
486,79	6,75
487,00	33,99
487,21	10,64
487,42	3,88
487,63	8,39
487,85	8,80
488,06	-1,03
488,27	-6,35
488,48	-11,07
488,69	4,09
488,90	13,92
489,11	5,93
489,32	-4,31
489,53	-5,33
489,74	9,41
489,95	21,91
490,16	19,24
490,37	-2,67
490,58	10,44
490,79	9,82
491,00	-1,03
491,21	-7,79
491,42	7,57
491,63	-8,61
491,84	6,14
492,06	-26,02
492,27	-6,97
492,48	16,79
492,69	14,12
492,90	10,44
493,11	-11,07
493,32	14,12
493,53	0,61
493,74	12,28
493,95	20,06
494,16	2,04
494,37	6,96
494,58	-2,67
494,79	-7,58
495,00	10,85
495,21	11,26
495,42	13,51
495,63	18,43
495,84	12,28
496,05	-2,87
496,26	-6,35
496,47	-0,42
496,68	10,64
496,89	8,39
497,10	-0,83
497,31	39,31
497,52	35,83
497,73	-12,70
497,94	14,94
498,15	7,78
498,36	-2,46
498,57	14,74
498,78	7,37
498,98	23,75
499,19	13,31
499,40	6,55
499,61	-3,49
499,82	-9,84
500,03	5,32
500,24	-0,42
500,45	14,53
500,66	1,22
500,87	31,74
501,08	30,30
501,29	3,07
501,50	11,05
501,71	-5,33
501,92	15,15
502,13	3,68
502,34	12,28
502,55	0,40
502,76	11,26
502,97	14,53
503,17	9,82
503,38	-21,71
503,59	25,18
503,80	3,68
504,01	20,27
504,22	13,72
504,43	10,03
504,64	-3,69
504,85	14,12
505,06	6,96
505,27	10,23
505,48	22,52
505,68	7,16
505,89	1,84
506,10	20,88
506,31	3,68
506,52	-1,03
506,73	2,86
506,94	13,31
507,15	6,55
507,36	23,55
507,57	-12,09
507,77	20,68
507,98	-1,64
508,19	21,29
508,40	8,39
508,61	26,21
508,82	13,92
509,03	26,41
509,24	21,29
509,45	18,63
509,65	-9,84
509,86	27,85
510,07	11,05
510,28	13,72
510,49	15,15
510,70	34,81
510,91	32,97
511,11	9,62
511,32	18,84
511,53	29,28
511,74	38,09
511,95	19,86
512,16	21,29
512,37	6,34
512,57	14,12
512,78	-1,44
512,99	17,40
513,20	7,98
513,41	-10,25
513,62	30,51
513,82	20,06
514,03	-3,28
514,24	14,94
514,45	34,81
514,66	18,63
514,87	2,04
515,07	0,61
515,28	16,79
515,49	8,80
515,70	-4,92
515,91	29,89
516,11	14,12
516,32	6,96
516,53	1,02
516,74	4,50
516,95	2,25
517,16	10,23
517,36	15,97
517,57	20,47
517,78	3,07
517,99	6,34
518,20	19,45
518,40	7,98
518,61	11,67
518,82	2,66
519,03	0,61
519,23	8,60
519,44	31,94
519,65	33,99
519,86	4,91
520,07	0,61
520,27	13,10
520,48	-6,97
520,69	20,27
520,90	12,90
521,10	19,65
521,31	24,16
521,52	16,99
521,73	8,19
521,94	20,68
522,14	2,66
522,35	10,23
522,56	19,24
522,77	12,08
522,97	15,56
523,18	20,06
523,39	17,81
523,60	14,12
523,80	-0,42
524,01	1,63
524,22	32,97
524,43	14,74
524,63	27,03
524,84	4,70
525,05	5,73
525,25	25,39
525,46	22,93
525,67	16,58
525,88	7,98
526,08	-12,70
526,29	6,14
526,50	14,94
526,71	18,63
526,91	-6,76
527,12	22,73
527,33	13,51
527,53	13,72
527,74	16,99
527,95	29,69
528,16	0,61
528,36	33,79
528,57	21,09
528,78	3,27
528,98	8,80
529,19	16,17
529,40	5,93
529,60	9,41
529,81	25,39
530,02	11,67
530,22	35,63
530,43	6,55
530,64	2,66
530,85	-3,69
531,05	25,18
531,26	-14,55
531,47	14,33
531,67	29,69
531,88	18,84
532,09	-9,02
532,29	3,68
532,50	5,93
532,71	14,94
532,91	-1,44
533,12	10,23
533,33	11,87
533,53	19,65
533,74	-7,99
533,95	-3,28
534,15	26,41
534,36	16,99
534,56	22,11
534,77	1,84
534,98	13,10
535,18	12,69
535,39	7,98
535,60	22,93
535,80	-7,17
536,01	30,51
536,22	16,58
536,42	11,87
536,63	10,64
536,83	-6,97
537,04	7,37
537,25	19,45
537,45	23,96
537,66	29,69
537,87	3,88
538,07	12,90
538,28	35,22
538,48	14,94
538,69	22,93
538,90	18,84
539,10	10,03
539,31	15,97
539,51	3,68
539,72	13,51
539,93	-0,62
540,13	32,76
540,34	-13,11
540,54	12,69
540,75	3,68
540,96	21,09
541,16	11,67
541,37	22,73
541,57	8,80
541,78	19,04
541,99	23,34
542,19	19,65
542,40	13,92
542,60	28,67
542,81	-6,76
543,01	5,52
543,22	5,73
543,43	23,55
543,63	14,94
543,84	21,70
544,04	16,79
544,25	2,66
544,45	4,09
544,66	5,52
544,87	27,85
545,07	42,39
545,28	16,17
545,48	8,19
545,69	16,99
545,89	23,96
546,10	21,91
546,30	21,29
546,51	23,96
546,71	23,96
546,92	-0,21
547,13	18,63
547,33	-12,50
547,54	13,10
547,74	1,02
547,95	6,75
548,15	12,28
548,36	27,23
548,56	18,22
548,77	8,80
548,97	14,94
549,18	4,91
549,38	20,47
549,59	16,79
549,79	13,10
550,00	6,75
550,20	20,27
550,41	1,84
550,61	11,26
550,82	4,29
551,02	16,58
551,23	3,27
551,43	4,50
551,64	14,33
551,84	2,45
552,05	14,74
552,25	-0,21
552,46	18,84
552,66	15,15
552,87	8,60
553,07	18,43
553,28	28,87
553,48	17,81
553,69	5,93
553,89	11,87
554,10	18,22
554,30	2,45
554,51	9,21
554,71	13,92
554,92	25,59
555,12	15,35
555,32	18,02
555,53	7,78
555,73	11,05
555,94	16,17
556,14	11,87
556,35	14,74
556,55	23,55
556,76	25,18
556,96	24,57
557,17	9,82
557,37	4,09
557,57	12,49
557,78	-0,62
557,98	0,40
558,19	12,90
558,39	1,43
558,60	28,87
558,80	13,51
559,00	-12,09
559,21	7,78
559,41	9,00
559,62	12,28
559,82	9,82
560,03	1,43
560,23	18,43
560,43	11,05
560,64	-13,52
560,84	36,45
561,05	14,33
561,25	13,51
561,45	26,41
561,66	16,58
561,86	16,99
562,07	5,73
562,27	17,40
562,47	5,32
562,68	14,33
562,88	14,94
563,09	15,97
563,29	13,31
563,49	19,24
563,70	12,28
563,90	29,28
564,11	25,59
564,31	-0,83
564,51	15,76
564,72	4,70
564,92	5,52
565,12	30,51
565,33	16,17
565,53	32,15
565,74	5,52
565,94	20,88
566,14	16,79
566,35	7,16
566,55	26,21
566,75	16,99
566,96	14,33
567,16	27,03
567,36	21,09
567,57	14,74
567,77	-1,85
567,98	9,00
568,18	10,23
568,38	15,56
568,59	13,72
568,79	15,76
568,99	-0,83
569,20	40,95
569,40	16,58
569,60	30,71
569,81	19,24
570,01	35,01
570,21	16,58
570,42	16,99
570,62	0,81
570,82	5,32
571,03	21,50
571,23	0,61
571,43	12,08
571,63	34,40
571,84	-7,99
572,04	28,46
572,24	-1,23
572,45	4,29
572,65	7,98
572,85	3,48
573,06	29,89
573,26	-1,44
573,46	4,29
573,67	18,22
573,87	4,29
574,07	15,97
574,27	-4,72
574,48	17,81
574,68	-10,04
574,88	34,19
575,09	21,91
575,29	14,53
575,49	-2,67
575,69	15,15
575,90	18,22
576,10	15,76
576,30	25,39
576,51	29,48
576,71	12,28
576,91	32,15
577,11	19,04
577,32	10,03
577,52	11,87
577,72	22,93
577,92	19,45
578,13	15,97
578,33	-3,28
578,53	25,39
578,73	22,11
578,94	16,99
579,14	-10,25
579,34	9,21
579,54	4,09
579,75	10,85
579,95	18,43
580,15	15,56
580,35	10,03
580,56	-1,44
580,76	-0,21
580,96	24,77
581,16	10,85
581,37	5,93
581,57	10,23
581,77	13,10
581,97	14,53
582,17	23,96
582,38	28,46
582,58	20,68
582,78	-3,08
582,98	0,20
583,19	21,09
583,39	8,39
583,59	4,09
583,79	19,45
583,99	9,00
584,20	12,69
584,40	11,67
584,60	13,51
584,80	22,11
585,00	31,74
585,21	10,44
585,41	13,92
585,61	0,61
585,81	34,19
586,01	3,88
586,22	28,67
586,42	21,09
586,62	-6,15
586,82	42,80
587,02	-2,87
587,22	23,96
587,43	19,45
587,63	19,24
587,83	38,91
588,03	9,82
588,23	-1,03
588,43	7,78
588,64	27,85
588,84	9,82
589,04	-1,44
589,24	9,00
589,44	11,87
589,64	0,81
589,85	19,04
590,05	19,45
590,25	28,67
590,45	18,63
590,65	9,21
590,85	10,64
591,05	21,29
591,26	5,32
591,46	17,61
591,66	16,58
591,86	5,11
592,06	30,10
592,26	6,34
592,46	5,52
592,67	3,07
592,87	17,81
593,07	-1,44
593,27	-0,01
593,47	29,89
593,67	28,46
593,87	14,12
594,07	15,76
594,28	23,14
594,48	2,25
594,68	6,34
594,88	9,62
595,08	18,84
595,28	15,97
595,48	9,00
595,68	2,45
595,88	3,68
596,08	9,62
596,29	20,88
596,49	1,02
596,69	13,51
596,89	3,07
597,09	7,16
597,29	15,97
597,49	25,18
597,69	14,74
597,89	14,53
598,09	2,25
598,29	27,03
598,50	0,61
598,70	21,29
598,90	9,62
599,10	34,40
599,30	2,66
599,50	6,75
599,70	-2,87
599,90	3,07
600,10	-4,10
600,30	6,55
600,50	4,50
600,70	0,61
600,90	6,55
601,10	26,82
601,30	11,05
601,50	15,56
601,71	8,80
601,91	23,75
602,11	2,86
602,31	14,74
602,51	31,94
602,71	19,65
602,91	13,51
603,11	19,24
603,31	5,32
603,51	27,85
603,71	4,29
603,91	9,21
604,11	7,78
604,31	23,14
604,51	12,28
604,71	17,20
604,91	-4,31
605,11	15,56
605,31	14,53
605,51	15,56
605,71	17,61
605,91	17,81
606,11	8,80
606,31	19,24
606,51	26,82
606,71	8,19
606,91	13,10
607,11	9,82
607,31	14,53
607,51	7,57
607,71	24,36
607,91	13,31
608,11	8,19
608,31	15,97
608,51	32,97
608,71	12,28
608,91	9,00
609,11	13,10
609,31	14,53
609,51	26,00
609,71	11,05
609,91	10,03
610,11	32,76
610,31	23,34
610,51	30,92
610,71	13,31
610,91	4,09
611,11	27,64
611,31	13,51
611,51	13,31
611,71	6,14
611,91	13,92
612,11	18,22
612,31	35,01
612,51	28,67
612,71	39,52
612,90	17,81
613,10	15,35
613,30	12,90
613,50	4,50
613,70	0,61
613,90	24,77
614,10	-13,52
614,30	4,29
614,50	36,86
614,70	13,72
614,90	29,48
615,10	44,43
615,30	-1,85
615,50	22,93
615,70	16,58
615,90	13,31
616,09	6,75
616,29	37,68
616,49	24,16
616,69	21,70
616,89	16,99
617,09	19,65
617,29	19,86
617,49	18,22
617,69	23,75
617,89	28,26
618,09	15,76
618,28	22,73
618,48	11,26
618,68	37,27
618,88	16,38
619,08	2,25
619,28	28,46
619,48	15,56
619,68	27,64
619,88	7,98
620,08	11,26
620,27	32,35
620,47	14,12
620,67	35,83
620,87	29,07
621,07	26,00
621,27	28,26
621,47	17,61
621,67	37,06
621,86	19,65
622,06	13,31
622,26	25,80
622,46	13,31
622,66	11,46
622,86	14,33
623,06	26,62
623,25	15,97
623,45	17,40
623,65	3,88
623,85	24,77
624,05	-1,85
624,25	31,53
624,45	33,79
624,64	38,09
624,84	1,22
625,04	25,39
625,24	23,34
625,44	28,46
625,64	19,04
625,83	41,98
626,03	39,52
626,23	32,76
626,43	16,99
626,63	10,03
626,83	23,75
627,02	25,80
627,22	25,39
627,42	19,45
627,62	18,63
627,82	12,28
628,02	30,92
628,21	26,00
628,41	18,84
628,61	33,79
628,81	29,69
629,01	6,96
629,20	20,47
629,40	18,43
629,60	21,70
629,80	33,58
630,00	-3,08
630,19	17,40
630,39	7,57
630,59	44,23
630,79	10,44
630,99	26,00
631,18	12,69
631,38	19,86
631,58	34,19
631,78	27,44
631,98	7,98
632,17	25,39
632,37	40,34
632,57	29,48
632,77	14,53
632,96	31,12
633,16	-0,42
633,36	34,81
633,56	29,89
633,76	14,94
633,95	20,47
634,15	20,68
634,35	13,51
634,55	29,28
634,74	10,64
634,94	20,27
635,14	37,68
635,34	27,64
635,53	17,40
635,73	35,83
635,93	7,78
636,13	14,33
636,32	24,36
636,52	17,61
636,72	42,80
636,92	38,09
637,11	20,27
637,31	19,24
637,51	29,69
637,70	19,04
637,90	19,04
638,10	24,36
638,30	14,12
638,49	21,09
638,69	15,76
638,89	22,52
639,09	4,09
639,28	12,69
639,48	21,70
639,68	9,62
639,87	-2,26
640,07	23,14
640,27	35,42
640,47	14,12
640,66	15,56
640,86	9,82
641,06	35,83
641,25	18,84
641,45	33,79
641,65	28,26
641,84	21,70
642,04	20,88
642,24	18,63
642,44	16,79
642,63	27,03
642,83	14,94
643,03	31,33
643,22	18,43
643,42	4,91
643,62	38,09
643,81	32,15
644,01	9,00
644,21	24,36
644,40	13,51
644,60	27,85
644,80	37,88
644,99	17,40
645,19	31,53
645,39	14,74
645,58	47,10
645,78	27,64
645,98	33,79
646,17	20,27
646,37	32,97
646,57	26,00
646,76	31,12
646,96	36,86
647,16	13,92
647,35	13,51
647,55	42,39
647,75	41,36
647,94	27,44
648,14	27,23
648,33	55,90
648,53	11,05
648,73	23,96
648,92	18,43
649,12	29,28
649,32	5,52
649,51	39,52
649,71	24,77
649,90	24,16
650,10	22,52
650,30	42,59
650,49	15,76
650,69	18,22
650,89	15,97
651,08	27,03
651,28	44,64
651,47	43,82
651,67	8,80
651,87	12,90
652,06	16,99
652,26	19,24
652,45	15,76
652,65	35,22
652,85	24,77
653,04	23,14
653,24	14,12
653,43	21,29
653,63	39,52
653,83	20,47
654,02	18,43
654,22	17,40
654,41	39,72
654,61	31,94
654,81	24,57
655,00	16,99
655,20	31,74
655,39	32,97
655,59	40,13
655,78	22,32
655,98	26,21
656,18	42,18
656,37	26,62
656,57	30,30
656,76	41,77
656,96	23,14
657,15	29,48
657,35	33,58
657,55	27,44
657,74	35,83
657,94	35,22
658,13	28,05
658,33	24,77
658,52	30,10
658,72	12,28
658,91	22,93
659,11	34,40
659,30	29,89
659,50	29,07
659,70	28,46
659,89	30,71
660,09	40,34
660,28	29,89
660,48	34,60
660,67	36,45
660,87	37,88
661,06	45,66
661,26	26,82
661,45	52,42
661,65	16,58
661,84	39,72
662,04	30,51
662,23	29,28
662,43	28,67
662,62	41,77
662,82	45,25
663,01	28,46
663,21	39,93
663,41	30,10
663,60	26,62
663,80	18,02
663,99	56,72
664,19	23,34
664,38	39,31
664,58	30,71
664,77	32,56
664,97	24,16
665,16	40,95
665,35	35,22
665,55	35,83
665,74	36,45
665,94	41,98
666,13	55,90
666,33	40,75
666,52	47,92
666,72	32,76
666,91	35,42
667,11	30,30
667,30	32,15
667,50	44,03
667,69	43,62
667,89	35,42
668,08	49,15
668,28	66,96
668,47	30,92
668,67	41,57
668,86	25,39
669,05	37,27
669,25	30,30
669,44	48,12
669,64	39,72
669,83	24,36
670,03	40,75
670,22	16,38
670,42	25,18
670,61	24,57
670,81	19,24
671,00	30,30
671,19	43,62
671,39	52,22
671,58	32,56
671,78	21,91
671,97	26,21
672,17	48,94
672,36	44,23
672,55	30,92
672,75	34,40
672,94	18,02
673,14	39,72
673,33	52,42
673,53	42,80
673,72	31,94
673,91	47,10
674,11	35,01
674,30	53,65
674,50	33,38
674,69	58,77
674,88	55,29
675,08	51,81
675,27	57,95
675,47	49,76
675,66	38,91
675,85	33,79
676,05	45,46
676,24	51,60
676,44	52,22
676,63	40,34
676,82	45,87
677,02	47,30
677,21	36,65
677,41	53,04
677,60	67,78
677,79	71,06
677,99	41,77
678,18	41,98
678,37	41,77
678,57	57,34
678,76	77,61
678,96	50,58
679,15	42,80
679,34	40,75
679,54	59,79
679,73	51,19
679,92	62,66
680,12	30,71
680,31	71,67
680,51	46,48
680,70	59,38
680,89	66,96
681,09	63,69
681,28	59,59
681,47	59,79
681,67	42,80
681,86	64,30
682,05	68,40
682,25	62,87
682,44	54,88
682,63	65,12
682,83	76,79
683,02	60,61
683,21	85,19
683,41	70,85
683,60	43,00
683,79	92,36
683,99	66,14
684,18	69,22
684,37	71,26
684,57	74,13
684,76	64,91
684,95	75,36
685,15	84,78
685,34	94,61
685,53	74,54
685,73	91,74
685,92	68,60
686,11	89,90
686,31	69,62
686,50	109,36
686,69	73,31
686,88	82,94
687,08	88,06
687,27	73,11
687,46	61,84
687,66	87,44
687,85	75,77
688,04	81,71
688,24	61,64
688,43	97,27
688,62	99,32
688,81	94,41
689,01	74,13
689,20	104,24
689,39	82,73
689,59	110,79
689,78	82,32
689,97	111,20
690,16	109,36
690,36	115,70
690,55	99,73
690,74	113,86
690,93	120,82
691,13	107,72
691,32	103,42
691,51	114,07
691,70	114,48
691,90	133,32
692,09	120,41
692,28	110,79
692,48	105,26
692,67	147,04
692,86	137,82
693,05	129,02
693,25	146,63
693,44	143,56
693,63	121,64
693,82	121,44
694,01	137,82
694,21	143,76
694,40	154,21
694,59	143,35
694,78	144,79
694,98	154,62
695,17	167,11
695,36	184,72
695,55	184,93
695,75	168,54
695,94	187,59
696,13	170,38
696,32	183,49
696,51	186,97
696,71	196,80
696,90	194,55
697,09	208,27
697,28	211,55
697,48	225,68
697,67	219,95
697,86	221,58
698,05	263,98
698,24	236,94
698,44	253,74
698,63	239,81
698,82	261,11
699,01	253,53
699,20	295,52
699,40	353,68
699,59	456,49
699,78	579,57
699,97	805,66
700,16	1101,80
700,36	1442,17
700,55	1898,26
700,74	2368,26
700,93	2981,43
701,12	3688,39
701,31	4521,29
701,51	5404,17
701,70	6431,43
701,89	7586,28
702,08	8856,23
702,27	10128,02
702,46	11635,53
702,66	13390,64
702,85	14854,94
703,04	17036,43
703,23	18893,53
703,42	20879,24
703,61	22916,15
703,81	25051,16
704,00	27298,60
704,19	29532,73
704,38	32220,07
704,57	34308,18
704,76	36111,83
704,96	38844,23
705,15	41273,12
705,34	43399,52
705,53	45369,06
705,72	47754,53
705,91	49852,26
706,10	51039,06
706,30	53192,30
706,49	54952,52
706,68	55540,70
706,87	57294,99
707,06	58205,31
707,25	59090,65
707,44	59766,28
707,63	60035,38
707,83	60728,21
708,02	61188,79
708,21	60368,38
708,40	60371,25
708,59	60096,61
708,78	59053,58
708,97	58597,09
709,16	57095,93
709,35	56196,67
709,55	54615,02
709,74	52914,39
709,93	51317,18
710,12	49544,66
710,31	47722,99
710,50	45076,61
710,69	43393,58
710,88	41271,68
711,07	38658,68
711,26	36770,86
711,46	34110,76
711,65	32076,30
711,84	29568,16
712,03	27265,42
712,22	25246,94
712,41	22835,87
712,60	20878,63
712,79	19043,24
712,98	17282,60
713,17	15353,62
713,36	13828,70
713,55	12247,46
713,75	10795,04
713,94	9507,48
714,13	8148,45
714,32	6985,00
714,51	5963,27
714,70	5096,16
714,89	4222,50
715,08	3451,03
715,27	2863,26
715,46	2297,81
715,65	1839,48
715,84	1460,81
716,03	1150,54
716,22	844,17
716,41	652,89
716,60	494,17
716,79	411,02
716,99	323,98
717,18	288,35
717,37	249,03
717,56	222,40
717,75	219,33
717,94	201,72
718,13	190,86
718,32	180,42
718,51	173,05
718,70	149,29
718,89	161,37
719,08	156,46
719,27	133,73
719,46	152,16
719,65	136,59
719,84	150,93
720,03	129,43
720,22	120,21
720,41	115,70
720,60	117,14
720,79	127,17
720,98	131,27
721,17	101,16
721,36	97,89
721,55	133,32
721,74	135,57
721,93	100,75
722,12	118,98
722,31	131,88
722,50	114,27
722,69	112,63
722,88	93,18
723,07	87,85
723,26	123,69
723,45	88,67
723,64	100,14
723,83	93,38
724,02	109,36
724,21	87,85
724,40	124,51
724,59	83,14
724,78	106,28
724,97	87,85
725,16	87,85
725,35	97,07
725,54	107,92
725,73	80,07
725,92	104,64
726,11	88,67
726,30	111,81
726,49	89,29
726,68	101,57
726,87	78,43
727,06	88,47
727,25	105,87
727,43	98,71
727,62	62,25
727,81	94,81
728,00	93,59
728,19	112,22
728,38	103,83
728,57	88,47
728,76	86,01
728,95	100,14
729,14	78,64
729,33	79,86
729,52	93,79
729,71	98,30
729,90	70,85
730,09	77,41
730,28	96,25
730,47	92,36
730,65	64,91
730,84	87,03
731,03	93,59
731,22	93,79
731,41	67,58
731,60	77,82
731,79	88,06
731,98	79,05
732,17	56,52
732,36	66,55
732,55	69,01
732,74	72,29
732,92	61,64
733,11	80,27
733,30	63,89
733,49	73,93
733,68	88,26
733,87	84,57
734,06	65,73
734,25	83,35
734,44	35,42
734,63	51,40
734,81	69,83
735,00	43,62
735,19	69,22
735,38	77,41
735,57	58,57
735,76	64,71
735,95	80,48
736,14	68,40
736,33	57,75
736,51	42,39
736,70	73,93
736,89	47,92
737,08	49,96
737,27	62,87
737,46	60,61
737,65	55,29
737,83	44,23
738,02	61,84
738,21	46,69
738,40	64,10
738,59	51,19
738,78	43,82
738,97	55,29
739,16	64,71
739,34	43,62
739,53	50,58
739,72	47,30
739,91	50,78
740,10	32,76
740,29	52,01
740,47	28,67
740,66	39,93
740,85	33,58
741,04	40,54
741,23	36,24
741,42	36,45
741,60	22,73
741,79	38,91
741,98	39,72
742,17	24,98
742,36	40,75
742,55	32,56
742,73	13,72
742,92	22,93
743,11	42,39
743,30	9,00
743,49	37,68
743,68	22,52
743,86	41,36
744,05	20,68
744,24	23,14
744,43	4,70
744,62	23,14
744,80	16,99
744,99	15,97
745,18	25,18
745,37	6,55
745,56	3,48
745,74	7,57
745,93	45,25
746,12	-2,26
746,31	25,39
746,50	18,84
746,68	35,01
746,87	39,52
747,06	11,46
747,25	14,94
747,44	37,88
747,62	16,99
747,81	44,03
748,00	13,72
748,19	24,98
748,37	1,22
748,56	19,65
748,75	5,52
748,94	6,96
749,13	12,28
749,31	12,90
749,50	9,82
749,69	22,52
749,88	13,10
750,06	-12,50
750,25	11,87
750,44	26,41
750,63	-4,51
750,81	-0,21
751,00	35,83
751,19	27,64
751,38	5,73
751,56	30,92
751,75	-1,64
751,94	-3,28
752,13	4,29
752,31	20,27
752,50	17,20
752,69	19,04
752,88	-4,10
753,06	24,77
753,25	31,53
753,44	34,40
753,63	15,97
753,81	21,50
754,00	20,47
754,19	31,94
754,37	6,75
754,56	25,59
754,75	25,39
754,94	13,72
755,12	24,98
755,31	12,08
755,50	5,32
755,69	8,19
755,87	16,17
756,06	5,93
756,25	0,40
756,43	14,33
756,62	15,97
756,81	19,65
756,99	-8,81
757,18	16,99
757,37	11,46
757,56	27,44
757,74	16,38
757,93	3,88
758,12	15,97
758,30	16,99
758,49	21,50
758,68	10,85
758,86	6,75
759,05	18,84
759,24	4,50
759,42	8,80
759,61	9,00
759,80	-2,26
759,99	24,57
760,17	27,23
760,36	14,94
760,55	0,61
760,73	30,92
760,92	14,33
761,11	9,62
761,29	7,98
761,48	2,66
761,67	6,55
761,85	17,20
762,04	-0,62
762,23	9,21
762,41	5,52
762,60	22,11
762,79	10,03
762,97	16,58
763,16	18,43
763,34	23,34
763,53	11,87
763,72	14,53
763,90	17,40
764,09	11,87
764,28	31,53
764,46	14,53
764,65	8,39
764,84	-19,67
765,02	11,46
765,21	6,96
765,40	5,52
765,58	15,35
765,77	19,65
765,95	8,19
766,14	25,80
766,33	1,84
766,51	27,85
766,70	-10,04
766,89	11,87
767,07	13,51
767,26	31,33
767,44	19,24
767,63	21,09
767,82	14,94
768,00	15,97
768,19	1,22
768,37	26,00
768,56	6,55
768,75	13,31
768,93	1,84
769,12	28,26
769,30	19,45
769,49	-1,23
769,68	28,67
769,86	27,03
770,05	16,58
770,23	13,10
770,42	-2,26
770,61	5,11
770,79	19,65
770,98	23,14
771,16	30,30
771,35	8,19
771,54	3,48
771,72	38,29
771,91	4,09
772,09	29,07
772,28	0,20
772,46	30,30
772,65	24,16
772,84	5,52
773,02	27,85
773,21	12,69
773,39	20,47
773,58	18,43
773,76	2,25
773,95	45,25
774,13	-3,08
774,32	31,53
774,51	6,96
774,69	17,40
774,88	9,00
775,06	21,91
775,25	-6,97
775,43	26,21
775,62	8,19
775,80	29,69
775,99	16,58
776,18	-3,28
776,36	15,35
776,55	5,11
776,73	14,33
776,92	29,89
777,10	-5,33
777,29	5,93
777,47	-10,66
777,66	18,02
777,84	8,19
778,03	30,51
778,21	21,50
778,40	-1,64
778,58	9,00
778,77	7,37
778,95	8,19
779,14	5,11
779,33	15,97
779,51	9,82
779,70	-4,51
779,88	24,98
780,07	16,17
780,25	14,94
780,44	7,37
780,62	7,78
780,81	3,68
780,99	36,65
781,18	19,24
781,36	1,63
781,55	-11,07
781,73	8,19
781,92	-2,26
782,10	21,50
782,29	23,75
782,47	13,31
782,66	10,85
782,84	29,28
783,03	20,06
783,21	14,53
783,39	14,53
783,58	27,03
783,76	6,55
783,95	3,88
784,13	11,87
784,32	18,63
784,50	10,03
784,69	2,86
784,87	15,97
785,06	18,84
785,24	7,16
785,43	-3,49
785,61	9,82
785,80	-3,69
785,98	10,44
786,17	17,61
786,35	18,02
786,53	6,34
786,72	-2,05
786,90	19,45
787,09	6,75
787,27	15,97
787,46	10,23
787,64	17,40
787,83	14,94
788,01	10,44
788,19	-2,87
788,38	11,05
788,56	27,23
788,75	23,96
788,93	6,96
789,12	25,18
789,30	13,51
789,49	14,12
789,67	9,41
789,85	16,38
790,04	-1,44
790,22	10,44
790,41	17,40
790,59	7,78
790,77	7,16
790,96	4,70
791,14	-7,38
791,33	1,43
791,51	11,46
791,70	29,69
791,88	-11,68
792,06	11,87
792,25	4,91
792,43	17,61
792,62	31,33
792,80	18,84
792,98	31,53
793,17	7,98
793,35	16,99
793,54	18,43
793,72	-17,21
793,90	25,80
794,09	-4,51
794,27	26,62
794,46	-3,90
794,64	-6,15
794,82	12,90
795,01	20,06
795,19	13,92
795,37	3,68
795,56	10,85
795,74	7,78
795,93	-17,00
796,11	5,11
796,29	-11,47
796,48	10,85
796,66	9,00
796,84	-9,63
797,03	14,12
797,21	20,06
797,40	8,80
797,58	7,98
797,76	7,98
797,95	10,64
798,13	-3,90
798,31	5,52
798,50	1,22
798,68	15,15
798,86	14,33
799,05	-1,03
799,23	19,04
799,42	5,93
799,60	9,21
799,78	5,73
799,97	5,32
800,15	11,87
800,33	-14,75
800,52	10,85
800,70	14,53
800,88	19,65
801,07	5,32
801,25	7,98
801,43	17,20
801,62	6,14
801,80	16,99
801,98	27,85
802,17	12,28
802,35	4,50
802,53	11,87
802,72	-3,08
802,90	28,05
803,08	-2,05
803,26	27,23
803,45	15,35
803,63	-11,68
803,81	29,28
804,00	1,22
804,18	-1,23
804,36	11,26
804,55	-4,51
804,73	5,11
804,91	5,93
805,10	3,48
805,28	-2,87
805,46	3,27
805,64	7,78
805,83	0,20
806,01	21,29
806,19	-2,26
806,38	3,68
806,56	6,34
806,74	4,09
806,92	18,84
807,11	7,57
807,29	-9,02
807,47	30,51
807,66	9,00
807,84	18,22
808,02	8,39
808,20	8,80
808,39	-1,03
808,57	4,70
808,75	14,74
808,94	10,44
809,12	15,15
809,30	1,43
809,48	-3,28
809,67	5,32
809,85	12,08
810,03	14,12
810,21	5,73
810,40	1,84
810,58	12,28
810,76	15,56
810,94	-6,56
811,13	19,24
811,31	15,76
811,49	20,27
811,67	7,16
811,86	18,84
812,04	9,00
812,22	9,82
812,40	9,41
812,59	15,56
812,77	22,11
812,95	15,56
813,13	21,70
813,32	12,28
813,50	-3,49
813,68	-1,44
813,86	12,49
814,04	10,03
814,23	19,65
814,41	4,70
814,59	-5,13
814,77	3,48
814,96	-1,23
815,14	1,02
815,32	0,40
815,50	29,48
815,68	-5,13
815,87	24,16
816,05	-6,56
816,23	11,46
816,41	21,91
816,59	-8,61
816,78	-7,17
816,96	4,09
817,14	1,84
817,32	-0,42
817,50	31,33
817,69	-13,73
817,87	11,05
818,05	10,03
818,23	-8,20
818,41	-0,42
818,60	27,03
818,78	4,29
818,96	4,91
819,14	10,64
819,32	18,43
819,51	3,27
819,69	13,92
819,87	15,15
820,05	1,84
820,23	8,19
820,41	12,90
820,60	28,87
820,78	1,22
820,96	5,52
821,14	-16,59
821,32	1,22
821,50	5,73
821,69	2,86
821,87	-16,80
822,05	9,00
822,23	5,73
822,41	15,97
822,59	7,98
822,78	5,93
822,96	-0,62
823,14	21,50
823,32	-14,14
823,50	-4,92
823,68	7,78
823,86	12,08
824,05	15,76
824,23	22,32
824,41	0,20
824,59	31,12
824,77	-5,95
824,95	-5,13
825,13	13,72
825,32	2,45
825,50	3,88
825,68	-16,59
825,86	-7,38
826,04	20,68
826,22	14,33
826,40	7,57
826,58	-9,22
826,77	34,81
826,95	16,79
827,13	11,67
827,31	-6,15
827,49	-8,40
827,67	14,94
827,85	11,05
828,03	-7,99
828,22	10,85
828,40	18,02
828,58	-9,84
828,76	5,32
828,94	34,81
829,12	11,67
829,30	-1,23
829,48	-19,05
829,66	0,40
829,84	9,41
830,03	10,64
830,21	-4,31
830,39	29,48
830,57	15,56
830,75	-4,51
830,93	19,65
831,11	3,27
831,29	2,45
831,47	7,98
831,65	2,66
831,83	27,23
832,02	28,26
832,20	14,53
832,38	10,64
832,56	17,20
832,74	0,20
832,92	3,88
833,10	-3,08
833,28	-8,61
833,46	-3,08
833,64	9,62
833,82	5,11
834,00	8,60
834,18	-17,21
834,36	25,18
834,54	2,04
834,73	18,63
834,91	0,81
835,09	3,27
835,27	2,25
835,45	19,86
835,63	9,82
835,81	-0,42
835,99	20,06
836,17	16,79
836,35	10,03
836,53	29,69
836,71	-4,10
836,89	13,31
837,07	-4,10
837,25	5,52
837,43	4,50
837,61	13,92
837,79	10,85
837,97	-0,21
838,15	15,56
838,33	20,88
838,51	10,85
838,69	-9,63
838,87	-4,92
839,05	2,66
839,23	13,92
839,41	17,81
839,59	16,58
839,78	2,45
839,96	-11,07
840,14	19,04
840,32	4,50
840,50	0,81
840,68	12,28
840,86	24,98
841,04	4,50
841,22	11,67
841,40	9,41
841,58	28,46
841,76	3,48
841,94	23,75
842,12	19,04
842,30	19,86
842,48	4,50
842,66	13,72
842,84	3,68
843,02	-6,76
843,20	3,68
843,38	-3,28
843,55	2,86
843,73	18,43
843,91	15,15
844,09	7,16
844,27	14,33
844,45	14,53
844,63	27,23
844,81	17,61
844,99	-2,05
845,17	14,53
845,35	7,98
845,53	5,52
845,71	17,61
845,89	5,52
846,07	2,25
846,25	15,76
846,43	-5,54
846,61	5,11
846,79	3,27
846,97	7,98
847,15	-3,28
847,33	13,92
847,51	-1,44
847,69	13,10
847,87	14,94
848,05	-5,13
848,23	-22,33
848,41	7,78
848,58	9,82
848,76	11,87
848,94	7,57
849,12	2,25
849,30	9,00
849,48	6,96
849,66	6,34
849,84	33,99
850,02	7,57
850,20	5,52
850,38	-10,86
850,56	-2,87
850,74	-1,23
850,92	8,60
851,10	5,73
851,27	23,75
851,45	-6,56
851,63	16,79
851,81	-2,26
851,99	-3,08
852,17	18,43
852,35	24,36
852,53	4,09
852,71	0,40
852,89	23,14
853,07	9,82
853,24	-3,28
853,42	14,74
853,60	-16,59
853,78	18,43
853,96	0,81
854,14	15,97
854,32	-12,91
854,50	-6,15
854,68	20,27
854,86	-5,54
855,03	-9,63
855,21	5,73
855,39	-2,26
855,57	0,81
855,75	5,32
855,93	16,38
856,11	10,85
856,29	38,29
856,47	18,02
856,64	2,45
856,82	-0,42
857,00	-8,81
857,18	10,23
857,36	24,98
857,54	6,96
857,72	16,17
857,90	1,63
858,07	3,68
858,25	3,48
858,43	1,22
858,61	17,81
858,79	20,68
858,97	18,43
859,15	23,96
859,32	-6,76
859,50	0,81
859,68	-2,05
859,86	10,85
860,04	2,04
860,22	-10,86
860,40	18,22
860,57	10,03
860,75	-11,88
860,93	6,96
861,11	-19,46
861,29	1,84
861,47	-10,66
861,64	2,04
861,82	-5,33
862,00	40,13
862,18	-9,43
862,36	-0,01
862,54	-9,22
862,71	16,58
862,89	-6,97
863,07	11,87
863,25	-2,87
863,43	3,48
863,61	1,02
863,78	-4,51
863,96	15,56
864,14	19,65
864,32	-5,95
864,50	-2,26
864,67	1,22
864,85	30,92
865,03	-8,61
865,21	24,98
865,39	13,72
865,57	15,35
865,74	14,12
865,92	13,51
866,10	-13,11
866,28	20,47
866,46	9,62
866,63	17,20
866,81	16,17
866,99	9,21
867,17	11,87
867,34	8,19
867,52	6,96
867,70	8,39
867,88	4,91
868,06	6,55
868,23	2,25
868,41	8,60
868,59	1,43
868,77	1,43
868,95	-3,90
869,12	12,28
869,30	-6,56
869,48	-4,10
869,66	-7,99
869,83	11,87
870,01	14,94
870,19	6,34
870,37	-12,50
870,55	16,58
870,72	-10,66
870,90	2,25
871,08	-1,44
871,26	-1,64
871,43	2,04
871,61	4,70
871,79	6,14
871,97	20,47
872,14	-3,08
872,32	4,29
872,50	21,70
872,68	2,45
872,85	1,43
873,03	-11,07
873,21	6,55
873,39	4,91
873,56	14,12
873,74	23,14
873,92	16,79
874,10	9,62
874,27	22,93
874,45	18,63
874,63	9,00
874,80	3,27
874,98	-11,07
875,16	7,78
875,34	5,32
875,51	-1,85
875,69	13,51
875,87	-0,83
876,05	2,25
876,22	-8,61
876,40	-0,21
876,58	-18,23
876,75	11,87
876,93	33,58
877,11	2,04
877,29	4,50
877,46	-5,54
877,64	-3,69
877,82	7,98
877,99	-10,25
878,17	3,07
878,35	38,09
878,52	5,11
878,70	13,72
878,88	-13,93
879,06	19,04
879,23	-4,31
879,41	21,09
879,59	9,21
879,76	3,88
879,94	5,73
880,12	6,14
880,29	12,28
880,47	18,63
880,65	-4,72
880,82	14,12
881,00	3,07
881,18	-6,15
881,36	-19,87
881,53	18,84
881,71	-8,40
881,89	13,51
882,06	23,34
882,24	18,02
882,42	22,11
882,59	7,78
882,77	4,50
882,95	-0,62
883,12	-3,49
883,30	31,33
883,48	0,20
883,65	-12,29
883,83	13,10
884,01	-1,23
884,18	1,43
884,36	-1,85
884,54	1,22
884,71	3,88
884,89	9,00
885,06	3,88
885,24	1,84
885,42	13,31
885,59	3,88
885,77	12,90
885,95	4,70
886,12	-1,44
886,30	4,09
886,48	-12,70
886,65	-1,64
886,83	17,81
887,01	9,82
887,18	-3,69
887,36	19,65
887,53	14,33
887,71	9,82
887,89	15,97
888,06	8,39
888,24	11,67
888,42	26,21
888,59	7,98
888,77	3,88
888,94	28,46
889,12	-23,35
889,30	4,70
889,47	23,96
889,65	-14,34
889,82	-14,55
890,00	13,51
890,18	-1,44
890,35	8,19
890,53	-9,22
890,71	11,46
890,88	1,02
891,06	6,14
891,23	13,51
891,41	12,69
891,59	-5,54
891,76	0,61
891,94	14,53
892,11	16,17
892,29	-1,03
892,46	11,46
892,64	-5,95
892,82	6,75
892,99	0,20
893,17	28,26
893,34	28,87
893,52	18,22
893,70	-16,19
893,87	25,59
894,05	21,09
894,22	5,52
894,40	-12,50
894,57	-1,64
894,75	19,45
894,93	-1,23
895,10	4,50
895,28	6,75
895,45	-2,67
895,63	18,84
895,80	10,64
895,98	-14,75
896,16	28,67
896,33	6,34
896,51	-12,09
896,68	13,51
896,86	7,37
897,03	7,37
897,21	9,41
897,38	-0,01
897,56	-20,49
897,74	-6,15
897,91	19,65
898,09	19,65
898,26	-7,99
898,44	-0,62
898,61	12,90
898,79	-4,92
898,96	9,82
899,14	20,88
899,31	5,73
899,49	3,88
899,67	-9,43
899,84	-1,44
900,02	16,58
900,19	-3,49
900,37	9,62
900,54	14,94
900,72	5,93
900,89	5,32
901,07	2,25
901,24	7,98
901,42	-8,81
901,59	17,61
901,77	-0,62
901,94	28,87
902,12	-2,05
902,29	29,07
902,47	-6,76
902,64	2,45
902,82	-7,79
902,99	12,28
903,17	-0,83
903,34	21,70
903,52	21,50
903,69	16,17
903,87	9,41
904,04	2,66
904,22	6,55
904,39	4,29
904,57	-3,49
904,74	-3,49
904,92	-1,64
905,09	8,39
905,27	5,73
905,44	13,31
905,62	16,79
905,79	11,67
905,97	1,43
906,14	26,82
906,32	-6,56
906,49	9,00
906,67	-8,40
906,84	9,00
907,02	4,09
907,19	3,07
907,37	-3,28
907,54	6,34
907,72	-14,14
907,89	1,22
908,06	-3,90
908,24	20,06
908,41	2,86
908,59	26,21
908,76	0,20
908,94	5,73
909,11	5,93
909,29	18,84
909,46	8,39
909,64	21,91
909,81	5,32
909,99	17,81
910,16	0,20
910,33	3,07
910,51	-8,81
910,68	4,91
910,86	9,62
911,03	9,00
911,21	5,73
911,38	-1,23
911,56	10,44
911,73	-10,04
911,90	11,05
912,08	-18,44
912,25	16,38
912,43	11,26
912,60	-4,51
912,78	-11,68
912,95	17,61
913,12	8,19
913,30	-3,90
913,47	4,91
913,65	-7,17
913,82	-2,26
914,00	1,84
914,17	8,19
914,34	0,20
914,52	9,82
914,69	-16,19
914,87	-2,46
915,04	-15,57
915,21	13,72
915,39	3,27
915,56	-8,61
915,74	9,62
915,91	20,47
916,08	12,28
916,26	12,90
916,43	8,60
916,61	-3,49
916,78	11,05
916,95	18,84
917,13	-1,44
917,30	-1,03
917,48	-3,90
917,65	15,97
917,82	-1,44
918,00	0,20
918,17	-6,76
918,35	9,41
918,52	-4,31
918,69	13,10
918,87	12,08
919,04	21,70
919,22	2,04
919,39	30,92
919,56	14,74
919,74	4,09
919,91	9,41
920,08	13,31
920,26	9,41
920,43	-2,26
920,61	0,20
920,78	41,77
920,95	6,14
921,13	2,45
921,30	-13,11
921,47	-2,46
921,65	24,98
921,82	3,07
921,99	11,26
922,17	-10,66
922,34	-5,33
922,51	-7,58
922,69	-13,93
922,86	1,02
923,04	11,05
923,21	7,78
923,38	7,57
923,56	16,38
923,73	8,60
923,90	3,88
924,08	-9,22
924,25	24,57
924,42	-16,19
924,60	11,46
924,77	-5,13
924,94	23,55
925,12	-8,40
925,29	2,86
925,46	2,45
925,64	24,36
925,81	33,17
925,98	-1,64
926,16	1,84
926,33	-3,49
926,50	4,09
926,68	16,99
926,85	9,62
927,02	15,35
927,19	-4,72
927,37	-9,22
927,54	7,37
927,71	5,73
927,89	-4,92
928,06	20,27
928,23	10,85
928,41	0,81
928,58	26,41
928,75	14,74
928,93	-9,22
929,10	-1,23
929,27	15,15
929,44	7,98
929,62	-4,31
929,79	9,00
929,96	7,98
930,14	-2,26
930,31	20,27
930,48	10,03
930,66	3,88
930,83	-0,83
931,00	3,48
931,17	16,58
931,35	0,40
931,52	19,65
931,69	21,50
931,87	-3,90
932,04	-2,05
932,21	17,20
932,38	8,60
932,56	13,10
932,73	-15,57
932,90	-4,10
933,07	-11,88
933,25	4,09
933,42	-8,61
933,59	27,23
933,77	11,46
933,94	0,20
934,11	-6,15
934,28	11,05
934,46	2,25
934,63	-3,69
934,80	16,58
934,97	1,43
935,15	28,87
935,32	-8,81
935,49	10,64
935,66	-11,47
935,84	15,15
936,01	15,76
936,18	6,96
936,35	-3,08
936,53	1,84
936,70	-0,62
936,87	1,63
937,04	5,73
937,22	8,80
937,39	25,59
937,56	13,10
937,73	6,34
937,91	-2,87
938,08	-4,72
938,25	-2,67
938,42	2,86
938,59	1,84
938,77	-8,20
938,94	14,12
939,11	4,91
939,28	-2,67
939,46	-9,63
939,63	-8,81
939,80	9,00
939,97	3,07
940,14	14,12
940,32	-3,90
940,49	7,16
940,66	22,93
940,83	-19,67
941,00	8,60
941,18	7,37
941,35	14,94
941,52	25,80
941,69	10,85
941,87	1,02
942,04	-4,92
942,21	10,23
942,38	2,86
942,55	-10,04
942,73	8,39
942,90	9,21
943,07	-8,20
943,24	-12,09
943,41	-13,52
943,58	-3,08
943,76	-9,84
943,93	4,70
944,10	4,09
944,27	12,49
944,44	8,80
944,62	13,92
944,79	5,11
944,96	0,81
945,13	0,61
945,30	6,14
945,47	15,56
945,65	23,34
945,82	2,25
945,99	15,76
946,16	5,93
946,33	12,69
946,50	-4,31
946,68	-3,49
946,85	0,81
947,02	23,75
947,19	-4,51
947,36	-1,64
947,53	21,91
947,71	-3,08
947,88	23,14
948,05	22,52
948,22	1,63
948,39	-15,98
948,56	28,26
948,74	6,14
948,91	14,33
949,08	17,20
949,25	6,34
949,42	31,94
949,59	15,56
949,76	4,09
949,94	14,12
950,11	14,53
950,28	6,75
950,45	7,37
950,62	-10,66
950,79	20,88
950,96	10,85
951,14	9,41
951,31	-4,92
951,48	22,73
951,65	24,16
951,82	11,46
951,99	6,75
952,16	4,29
952,33	18,84
952,51	4,09
952,68	27,03
952,85	13,31
953,02	4,70
953,19	23,55
953,36	-19,46
953,53	20,47
953,70	2,66
953,87	-0,42
954,05	-4,92
954,22	3,68
954,39	19,86
954,56	-3,69
954,73	-5,54
954,90	-29,09
955,07	-18,03
955,24	4,50
955,41	-5,95
955,58	11,05
955,76	-8,61
955,93	3,88
956,10	-8,81
956,27	23,75
956,44	10,03
956,61	-5,54
956,78	7,98
956,95	-3,28
957,12	5,73
957,29	1,22
957,46	-6,15
957,64	1,22
957,81	23,96
957,98	-2,67
958,15	-20,08
958,32	16,79
958,49	3,07
958,66	4,09
958,83	7,78
959,00	6,14
959,17	-17,62
959,34	12,49
959,51	11,46
959,68	19,04
959,85	7,78
960,03	15,56
960,20	6,14
960,37	4,91
960,54	-14,96
960,71	12,28
960,88	17,81
961,05	5,11
961,22	2,86
961,39	23,34
961,56	6,34
961,73	5,11
961,90	6,55
962,07	9,82
962,24	-5,74
962,41	11,67
962,58	8,19
962,75	-9,02
962,92	-6,56
963,09	5,52
963,26	-3,28
963,44	24,16
963,61	-11,68
963,78	0,81
963,95	-3,08
964,12	5,93
964,29	-12,70
964,46	7,16
964,63	13,92
964,80	4,70
964,97	25,18
965,14	-13,93
965,31	15,97
965,48	19,24
965,65	6,55
965,82	22,73
965,99	11,87
966,16	11,67
966,33	3,68
966,50	8,60
966,67	23,14
966,84	12,28
967,01	14,74
967,18	5,11
967,35	9,82
967,52	13,72
967,69	8,80
967,86	12,69
968,03	22,93
968,20	-9,02
968,37	-7,58
968,54	3,27
968,71	18,02
968,88	2,66
969,05	23,75
969,22	10,44
969,39	-10,25
969,56	13,31
969,73	-8,40
969,90	-17,41
970,07	29,07
970,24	6,34
970,41	-6,97
970,58	4,91
970,75	11,46
970,92	1,22
971,09	-1,64
971,26	16,58
971,43	-2,05
971,60	-1,64
971,77	4,29
971,94	17,61
972,11	10,44
972,28	3,48
972,45	5,52
972,62	1,43
972,79	12,28
972,96	-7,99
973,12	8,80
973,29	-10,45
973,46	9,41
973,63	14,53
973,80	7,37
973,97	9,21
974,14	2,04
974,31	12,69
974,48	-1,64
974,65	-9,84
974,82	-7,17
974,99	-0,62
975,16	-3,49
975,33	21,09
975,50	-2,46
975,67	10,23
975,84	-4,92
976,01	-6,97
976,18	12,08
976,35	11,26
976,51	-14,75
976,68	3,07
976,85	-14,14
977,02	4,91
977,19	-7,58
977,36	-0,83
977,53	-27,04
977,70	-4,31
977,87	14,33
978,04	7,37
978,21	-10,04
978,38	-8,20
978,55	-8,20
978,72	-21,51
978,88	-11,47
979,05	-9,84
979,22	0,20
979,39	20,47
979,56	9,21
979,73	11,26
979,90	-2,87
980,07	5,73
980,24	33,17
980,41	22,11
980,58	4,29
980,75	21,50
980,91	9,62
981,08	-0,01
981,25	-13,73
981,42	15,56
981,59	-13,11
981,76	2,45
981,93	19,45
982,10	7,37
982,27	-7,38
982,44	13,10
982,60	9,41
982,77	5,93
982,94	5,11
983,11	8,80
983,28	10,64
983,45	8,80
983,62	2,25
983,79	12,90
983,95	12,08
984,12	-9,63
984,29	5,52
984,46	14,74
984,63	12,28
984,80	11,05
984,97	5,93
985,14	29,28
985,30	17,61
985,47	7,37
985,64	-4,92
985,81	12,28
985,98	-10,86
986,15	6,34
986,32	15,56
986,49	-2,26
986,65	-0,83
986,82	-13,73
986,99	4,29
987,16	25,80
987,33	-32,57
987,50	5,11
987,67	-3,90
987,83	2,66
988,00	4,50
988,17	22,32
988,34	2,86
988,51	-2,46
988,68	13,92
988,84	3,27
989,01	7,16
989,18	-13,32
989,35	3,07
989,52	12,90
989,69	9,82
989,86	8,60
990,02	-1,03
990,19	19,04
990,36	0,40
990,53	15,56
990,70	12,69
990,87	5,11
991,03	33,38
991,20	26,21
991,37	3,68
991,54	22,52
991,71	-11,88
991,87	32,15
992,04	0,20
992,21	25,18
992,38	7,57
992,55	3,68
992,72	8,19
992,88	18,84
993,05	-1,64
993,22	14,74
993,39	-11,88
993,56	7,78
993,72	-11,27
993,89	4,91
994,06	2,86
994,23	9,82
994,40	-1,85
994,56	12,08
994,73	-2,26
994,90	1,63
995,07	1,22
995,24	-10,04
995,40	-6,35
995,57	4,29
995,74	0,20
995,91	-9,84
996,08	14,94
996,24	39,93
996,41	-2,87
996,58	14,74
996,75	-3,08
996,92	-1,64
997,08	19,45
997,25	2,45
997,42	6,75
997,59	-3,69
997,75	7,16
997,92	27,03
998,09	26,21
998,26	-5,54
998,43	-17,21
998,59	2,45
998,76	9,82
998,93	6,55
999,10	-5,74
999,26	12,90
999,43	17,81
999,60	7,16
999,77	-7,17
999,93	11,05
1000,10	1,84
1000,27	4,09
1000,44	-16,59
1000,60	20,88
1000,77	-11,47
1000,94	8,80
1001,11	3,48
1001,28	20,88
1001,44	1,63
1001,61	1,43
1001,78	-3,08
1001,95	-7,99
1002,11	5,32
1002,28	4,50
1002,45	8,39
1002,61	16,99
1002,78	-4,72
1002,95	12,69
1003,12	-17,41
1003,28	4,70
1003,45	13,92
1003,62	-9,02
1003,79	-1,64
1003,95	-2,46
1004,12	-17,62
1004,29	10,64
1004,46	16,79
1004,62	0,20
1004,79	-6,76
1004,96	12,28
1005,12	-5,13
1005,29	-5,54
1005,46	3,07
1005,63	23,55
1005,79	3,68
1005,96	6,55
1006,13	-4,72
1006,29	24,36
1006,46	13,72
1006,63	5,32
1006,80	17,40
1006,96	25,18
1007,13	-3,08
1007,30	7,98
1007,46	10,03
1007,63	9,62
1007,80	-2,26
1007,97	4,50
1008,13	5,11
1008,30	-3,28
1008,47	8,19
1008,63	0,61
1008,80	-8,61
1008,97	-6,97
1009,13	-1,85
1009,30	9,00
1009,47	18,02
1009,64	3,27
1009,80	26,21
1009,97	-10,25
1010,14	-0,83
1010,30	25,80
1010,47	-12,09
1010,64	-2,87
1010,80	-2,87
1010,97	5,32
1011,14	16,99
1011,30	21,70
1011,47	-10,86
1011,64	24,16
1011,80	2,45
1011,97	15,56
1012,14	10,44
1012,30	5,32
1012,47	-9,43
1012,64	-7,38
1012,80	21,70
1012,97	11,05
1013,14	-11,47
1013,30	17,40
1013,47	11,05
1013,64	17,40
1013,80	-5,13
1013,97	2,45
1014,14	-1,44
1014,30	17,81
1014,47	6,96
1014,64	7,16
1014,80	-17,00
1014,97	5,73
1015,14	12,90
1015,30	-7,17
1015,47	-14,96
1015,64	10,64
1015,80	10,03
1015,97	-2,46
1016,13	-15,98
1016,30	29,48
1016,47	1,84
1016,63	17,81
1016,80	6,34
1016,97	8,39
1017,13	10,85
1017,30	11,26
1017,47	20,47
1017,63	9,41
1017,80	-9,63
1017,96	6,14
1018,13	13,31
1018,30	17,61
1018,46	-14,14
1018,63	20,47
1018,80	10,44
1018,96	3,48
1019,13	7,57
1019,29	5,11
1019,46	30,92
1019,63	37,88
1019,79	7,16
1019,96	26,41
1020,13	12,28
1020,29	17,61
1020,46	-2,67
1020,62	7,78
1020,79	-3,28
1020,96	11,67
1021,12	-11,68
1021,29	10,23
1021,45	5,93
1021,62	-22,74
1021,79	-8,81
1021,95	9,62
1022,12	1,43
1022,28	15,15
1022,45	16,38
1022,62	15,15
1022,78	-5,54
1022,95	-15,16
1023,11	5,73
1023,28	12,69
1023,45	5,93
1023,61	-18,64
1023,78	-9,22
1023,94	3,68
1024,11	-1,64
1024,27	34,81
1024,44	-15,57
1024,61	18,02
1024,77	-5,54
1024,94	-30,11
1025,10	4,09
1025,27	7,57
1025,43	-14,55
1025,60	12,49
1025,77	1,22
1025,93	5,11
1026,10	13,31
1026,26	-0,42
1026,43	4,29
1026,59	-3,69
1026,76	-6,76
1026,93	-18,03
1027,09	-3,28
1027,26	-2,87
1027,42	-2,67
1027,59	14,33
1027,75	-1,03
1027,92	4,50
1028,08	1,84
1028,25	17,20
1028,42	6,75
1028,58	24,98
1028,75	-0,21
1028,91	1,84
1029,08	8,19
1029,24	11,67
1029,41	5,32
1029,57	20,68
1029,74	0,40
1029,91	3,07
1030,07	-7,58
1030,24	12,28
1030,40	16,58
1030,57	1,02
1030,73	-12,29
1030,90	7,78
1031,06	-1,85
1031,23	28,46
1031,39	-1,03
1031,56	20,88
1031,72	-3,69
1031,89	17,61
1032,05	25,59
1032,22	15,56
1032,38	-12,70
1032,55	11,87
1032,72	11,67
1032,88	12,08
1033,05	2,25
1033,21	11,67
1033,38	-14,55
1033,54	17,40
1033,71	0,61
1033,87	14,74
1034,04	18,43
1034,20	3,88
1034,37	7,57
1034,53	-6,15
1034,70	-12,29
1034,86	13,92
1035,03	30,30
1035,19	11,87
1035,36	12,90
1035,52	17,20
1035,69	6,14
1035,85	31,33
1036,02	-6,15
1036,18	-1,85
1036,35	7,57
1036,51	13,51
1036,68	14,74
1036,84	14,94
1037,01	-23,76
1037,17	18,02
1037,34	-11,47
1037,50	13,10
1037,67	5,73
>>>>>Finisci Dati dello Spettro Elaborati<<<<<
