File Dati SpectraSuite
++++++++++++++++++++++++++++++++++++
Data: Mon Feb 25 16:41:50 CET 2019
Utente: Studente
Spettro Scuro Presente: Si
Spettro di Riferimento Presente: No
Numero di Componenti Spettri Campionati: 1
Spettrometri: USB4F01341
Tempo di integrazione (usec): 2000 (USB4F01341)
Media Spettri: 60 (USB4F01341)
Appiattimento Boxcar: 0 (USB4F01341)
Correggi Oscurità Elettronica: Si (USB4F01341)
Strobo/Lampada Abilitato: No (USB4F01341)
Correct for Detector Non-linearity: No (USB4F01341)
Correggi Stray Light: No (USB4F01341)
Numero di Pixel nello Spettro Elaborato: 3648
>>>>>Comincia Dati dello Spettro Elaborati<<<<<
337,57	4,84
337,79	4,84
338,02	4,84
338,24	2,55
338,47	0,81
338,69	1,80
338,92	1,66
339,14	-0,90
339,36	13,51
339,59	-1,00
339,81	-0,76
340,04	5,39
340,26	7,06
340,49	2,89
340,71	-1,00
340,93	4,26
341,16	-3,25
341,38	-11,10
341,61	-4,10
341,83	5,18
342,05	-1,13
342,28	-4,17
342,50	3,30
342,73	-0,59
342,95	0,09
343,17	-0,35
343,40	2,28
343,62	3,06
343,85	3,92
344,07	-7,07
344,29	9,69
344,52	0,78
344,74	6,41
344,97	-1,48
345,19	5,04
345,41	3,20
345,64	2,83
345,86	-0,14
346,08	7,33
346,31	-8,27
346,53	8,05
346,76	-1,82
346,98	7,19
347,20	-0,14
347,43	9,75
347,65	-1,17
347,87	8,46
348,10	-4,17
348,32	4,91
348,54	-3,28
348,77	7,67
348,99	0,23
349,21	-3,08
349,44	9,41
349,66	3,34
349,88	-2,23
350,11	4,40
350,33	2,38
350,55	6,72
350,78	0,74
351,00	4,91
351,22	4,63
351,45	2,52
351,67	-9,91
351,89	11,36
352,12	-2,84
352,34	-2,29
352,56	-0,42
352,79	3,47
353,01	0,16
353,23	1,05
353,45	0,54
353,68	4,60
353,90	-0,25
354,12	8,15
354,35	5,93
354,57	4,40
354,79	2,24
355,01	9,45
355,24	3,78
355,46	1,12
355,68	-2,77
355,91	4,80
356,13	-7,72
356,35	4,19
356,57	3,13
356,80	-2,94
357,02	1,02
357,24	1,97
357,46	-10,62
357,69	5,01
357,91	-6,66
358,13	3,95
358,35	3,23
358,58	0,57
358,80	1,94
359,02	4,50
359,24	4,50
359,47	8,39
359,69	2,14
359,91	4,98
360,13	1,46
360,36	6,14
360,58	-2,70
360,80	8,01
361,02	-2,43
361,25	4,22
361,47	3,78
361,69	-5,71
361,91	7,60
362,13	1,43
362,36	5,49
362,58	5,42
362,80	-3,11
363,02	5,83
363,25	9,38
363,47	5,90
363,69	5,32
363,91	0,67
364,13	3,03
364,36	9,72
364,58	-0,32
364,80	8,32
365,02	0,47
365,24	5,62
365,47	1,70
365,69	2,89
365,91	-2,91
366,13	2,83
366,35	9,04
366,57	1,87
366,80	-4,04
367,02	4,46
367,24	1,94
367,46	6,14
367,68	-3,56
367,90	15,45
368,13	9,21
368,35	7,43
368,57	2,01
368,79	13,99
369,01	-1,24
369,23	3,82
369,46	0,27
369,68	2,04
369,90	-3,52
370,12	8,01
370,34	-0,32
370,56	-0,18
370,78	-1,65
371,01	6,75
371,23	7,13
371,45	12,55
371,67	-3,05
371,89	8,01
372,11	-0,72
372,33	13,07
372,56	-0,18
372,78	12,48
373,00	-1,17
373,22	16,07
373,44	-3,97
373,66	3,78
373,88	-8,10
374,10	0,88
374,32	-4,21
374,55	18,56
374,77	3,61
374,99	7,33
375,21	-1,68
375,43	9,38
375,65	1,90
375,87	4,05
376,09	0,13
376,31	7,74
376,53	-4,58
376,75	3,95
376,98	9,28
377,20	-0,32
377,42	-3,28
377,64	8,80
377,86	3,47
378,08	5,25
378,30	3,13
378,52	8,63
378,74	7,54
378,96	6,00
379,18	-6,53
379,40	4,91
379,62	-2,02
379,84	7,43
380,07	-4,99
380,29	6,82
380,51	-0,32
380,73	3,27
380,95	-2,84
381,17	12,38
381,39	7,16
381,61	1,26
381,83	10,64
382,05	9,89
382,27	-1,58
382,49	2,35
382,71	-3,86
382,93	13,10
383,15	0,37
383,37	6,96
383,59	-3,42
383,81	13,99
384,03	-3,49
384,25	-1,95
384,47	-4,75
384,69	3,88
384,91	5,25
385,13	8,46
385,35	1,60
385,57	11,90
385,79	-0,38
386,01	8,15
386,23	2,89
386,45	10,51
386,67	0,67
386,89	11,22
387,11	-4,04
387,33	12,14
387,55	0,37
387,77	5,01
387,99	3,82
388,21	1,26
388,43	9,82
388,65	7,77
388,87	-1,99
389,09	8,12
389,31	2,01
389,53	4,09
389,75	5,59
389,97	10,37
390,19	2,42
390,41	5,59
390,63	9,55
390,85	3,37
391,07	4,74
391,29	4,36
391,51	1,22
391,72	2,24
391,94	4,46
392,16	1,05
392,38	-0,86
392,60	3,95
392,82	-1,13
393,04	6,37
393,26	3,68
393,48	8,56
393,70	-3,83
393,92	10,13
394,14	1,05
394,36	4,40
394,58	7,26
394,80	-1,61
395,01	-2,77
395,23	8,22
395,45	10,10
395,67	7,33
395,89	4,57
396,11	12,76
396,33	0,03
396,55	1,12
396,77	6,89
396,99	12,93
397,21	3,78
397,42	16,75
397,64	-4,68
397,86	5,76
398,08	6,07
398,30	10,37
398,52	9,75
398,74	15,86
398,96	0,23
399,17	6,27
399,39	-8,81
399,61	0,23
399,83	-6,56
400,05	3,92
400,27	-3,80
400,49	8,59
400,71	2,18
400,92	-1,30
401,14	2,11
401,36	9,00
401,58	2,28
401,80	15,56
402,02	-0,72
402,24	-2,16
402,45	3,64
402,67	16,31
402,89	-4,31
403,11	-6,56
403,33	-1,61
403,55	9,14
403,76	6,61
403,98	9,58
404,20	-9,53
404,42	0,61
404,64	3,64
404,86	-6,25
405,07	2,45
405,29	3,68
405,51	-6,08
405,73	10,23
405,95	1,46
406,17	5,56
406,38	-6,29
406,60	6,82
406,82	-5,57
407,04	4,43
407,26	3,23
407,47	-1,44
407,69	5,21
407,91	7,81
408,13	-3,11
408,35	6,65
408,56	-3,05
408,78	2,55
409,00	0,44
409,22	9,41
409,44	-2,43
409,65	9,24
409,87	3,88
410,09	-0,49
410,31	5,69
410,52	11,36
410,74	7,09
410,96	7,98
411,18	4,70
411,40	4,40
411,61	-0,32
411,83	6,20
412,05	-3,15
412,27	3,03
412,48	-0,76
412,70	2,28
412,92	4,74
413,14	3,99
413,35	-2,67
413,57	6,61
413,79	6,48
414,01	8,01
414,22	8,15
414,44	6,61
414,66	5,15
414,87	8,90
415,09	-4,10
415,31	11,09
415,53	6,48
415,74	8,83
415,96	-5,57
416,18	-1,58
416,40	-1,41
416,61	-3,63
416,83	-7,48
417,05	6,20
417,26	3,85
417,48	11,73
417,70	5,90
417,92	7,23
418,13	-1,20
418,35	6,27
418,57	-4,96
418,78	6,31
419,00	0,27
419,22	-0,28
419,43	3,82
419,65	8,97
419,87	-0,86
420,09	1,56
420,30	-2,19
420,52	4,33
420,74	7,74
420,95	3,30
421,17	0,95
421,39	2,11
421,60	9,24
421,82	7,74
422,04	1,32
422,25	6,07
422,47	6,55
422,69	20,88
422,90	-4,21
423,12	6,07
423,34	5,79
423,55	0,78
423,77	8,42
423,99	5,42
424,20	6,31
424,42	-2,40
424,64	8,08
424,85	1,05
425,07	-3,25
425,28	-0,38
425,50	4,33
425,72	10,88
425,93	9,69
426,15	7,47
426,37	-0,04
426,58	16,99
426,80	-0,76
427,01	2,52
427,23	2,48
427,45	5,28
427,66	-0,32
427,88	15,04
428,10	-2,94
428,31	9,65
428,53	-6,53
428,74	7,19
428,96	6,10
429,18	-5,26
429,39	8,90
429,61	4,50
429,82	9,96
430,04	3,95
430,26	2,04
430,47	11,09
430,69	-2,74
430,90	3,82
431,12	-1,17
431,34	10,20
431,55	-3,18
431,77	1,80
431,98	-3,59
432,20	11,49
432,41	-2,74
432,63	12,93
432,85	0,40
433,06	3,23
433,28	-7,59
433,49	2,21
433,71	-5,50
433,92	7,47
434,14	6,31
434,35	16,21
434,57	4,43
434,79	8,49
435,00	2,28
435,22	0,98
435,43	6,72
435,65	2,31
435,86	0,16
436,08	8,22
436,29	3,13
436,51	15,93
436,72	5,66
436,94	11,19
437,16	0,03
437,37	8,22
437,59	1,32
437,80	6,65
438,02	7,60
438,23	6,51
438,45	3,03
438,66	-2,23
438,88	8,93
439,09	1,29
439,31	1,46
439,52	7,43
439,74	1,70
439,95	7,57
440,17	-3,80
440,38	3,68
440,60	-4,82
440,81	10,44
441,03	8,83
441,24	2,48
441,46	5,39
441,67	6,44
441,89	7,33
442,10	6,27
442,32	3,13
442,53	4,09
442,75	-8,30
442,96	2,79
443,18	0,50
443,39	4,50
443,61	3,99
443,82	7,67
444,04	0,88
444,25	4,70
444,46	-0,38
444,68	1,73
444,89	3,44
445,11	2,93
445,32	6,89
445,54	10,33
445,75	2,45
445,97	5,32
446,18	1,05
446,40	5,62
446,61	-0,49
446,82	9,62
447,04	6,92
447,25	3,88
447,47	-2,26
447,68	3,44
447,90	-1,07
448,11	5,52
448,32	-7,07
448,54	14,12
448,75	7,84
448,97	6,99
449,18	-1,37
449,40	5,15
449,61	2,45
449,82	9,24
450,04	-2,19
450,25	6,51
450,47	1,70
450,68	6,17
450,89	3,61
451,11	0,37
451,32	-0,96
451,54	16,03
451,75	1,15
451,96	3,85
452,18	-4,14
452,39	1,32
452,61	-2,67
452,82	2,65
453,03	-4,45
453,25	5,01
453,46	-4,41
453,68	-4,62
453,89	-0,59
454,10	6,41
454,32	3,61
454,53	7,64
454,74	9,21
454,96	5,73
455,17	-5,47
455,39	10,27
455,60	1,49
455,81	7,16
456,03	1,26
456,24	5,28
456,45	-5,78
456,67	12,11
456,88	2,93
457,09	8,15
457,31	-0,52
457,52	9,31
457,73	-0,01
457,95	10,51
458,16	-0,18
458,37	4,50
458,59	-4,17
458,80	8,39
459,01	0,91
459,23	5,45
459,44	4,09
459,65	10,23
459,87	1,02
460,08	5,66
460,29	-5,88
460,51	5,79
460,72	0,50
460,93	6,10
461,15	2,52
461,36	9,65
461,57	4,57
461,79	7,71
462,00	-3,05
462,21	8,18
462,42	0,09
462,64	3,20
462,85	2,07
463,06	12,14
463,28	-1,95
463,49	12,69
463,70	-1,61
463,92	2,14
464,13	1,46
464,34	8,15
464,55	8,90
464,77	1,43
464,98	-0,04
465,19	4,74
465,40	0,67
465,62	11,60
465,83	8,63
466,04	2,72
466,26	-3,22
466,47	5,90
466,68	8,76
466,89	-0,55
467,11	-10,55
467,32	0,16
467,53	-2,12
467,74	5,01
467,96	-4,65
468,17	8,05
468,38	-6,56
468,59	7,64
468,81	3,58
469,02	1,32
469,23	6,75
469,44	10,64
469,66	-3,11
469,87	2,69
470,08	0,88
470,29	8,22
470,50	8,76
470,72	1,94
470,93	1,56
471,14	4,63
471,35	0,30
471,57	7,23
471,78	5,35
471,99	5,52
472,20	-1,99
472,41	11,32
472,63	-2,57
472,84	4,60
473,05	-4,72
473,26	5,52
473,47	5,28
473,69	0,98
473,90	-6,32
474,11	12,79
474,32	-0,35
474,53	9,14
474,75	0,16
474,96	9,52
475,17	-0,55
475,38	4,22
475,59	9,72
475,80	2,24
476,02	-1,54
476,23	7,95
476,44	2,55
476,65	6,07
476,86	0,47
477,08	4,36
477,29	-1,65
477,50	11,43
477,71	-4,17
477,92	8,08
478,13	-5,64
478,34	6,92
478,56	8,59
478,77	9,28
478,98	7,84
479,19	1,39
479,40	4,77
479,61	6,27
479,83	1,56
480,04	12,21
480,25	-1,54
480,46	8,63
480,67	8,73
480,88	5,18
481,09	0,81
481,30	6,78
481,52	9,65
481,73	1,05
481,94	3,68
482,15	4,70
482,36	2,89
482,57	-1,99
482,78	1,87
482,99	7,71
483,21	-0,32
483,42	7,50
483,63	1,39
483,84	17,64
484,05	-4,96
484,26	0,78
484,47	3,68
484,68	0,50
484,89	-1,61
485,10	11,60
485,32	-1,20
485,53	8,22
485,74	2,59
485,95	11,49
486,16	6,17
486,37	6,82
486,58	2,72
486,79	-4,85
487,00	5,76
487,21	3,13
487,42	-5,74
487,63	1,60
487,85	2,93
488,06	5,66
488,27	-1,95
488,48	3,71
488,69	-1,00
488,90	9,31
489,11	3,85
489,32	11,67
489,53	-5,43
489,74	6,20
489,95	10,57
490,16	10,71
490,37	-1,92
490,58	4,77
490,79	4,98
491,00	3,10
491,21	4,77
491,42	1,90
491,63	1,02
491,84	10,64
492,06	6,48
492,27	7,50
492,48	-3,28
492,69	4,80
492,90	2,45
493,11	12,86
493,32	-4,48
493,53	5,73
493,74	0,23
493,95	12,14
494,16	3,92
494,37	11,73
494,58	6,41
494,79	6,10
495,00	-0,72
495,21	9,41
495,42	-0,62
495,63	6,51
495,84	-4,34
496,05	3,75
496,26	5,66
496,47	6,27
496,68	-2,77
496,89	10,91
497,10	-1,03
497,31	9,58
497,52	-10,96
497,73	-1,24
497,94	7,88
498,15	13,75
498,36	2,38
498,57	0,03
498,78	2,55
498,98	19,41
499,19	-4,34
499,40	4,77
499,61	-1,82
499,82	9,45
500,03	3,30
500,24	7,77
500,45	0,91
500,66	3,30
500,87	2,07
501,08	6,20
501,29	-3,32
501,50	2,69
501,71	-3,18
501,92	14,02
502,13	-0,62
502,34	13,44
502,55	-1,54
502,76	9,62
502,97	12,08
503,17	9,52
503,38	6,48
503,59	13,58
503,80	-5,20
504,01	6,07
504,22	2,11
504,43	13,07
504,64	-5,20
504,85	7,95
505,06	-2,36
505,27	9,89
505,48	1,80
505,68	5,62
505,89	-0,04
506,10	9,65
506,31	-1,58
506,52	8,39
506,73	3,61
506,94	-2,60
507,15	0,57
507,36	2,24
507,57	3,44
507,77	0,27
507,98	-0,35
508,19	-0,52
508,40	3,03
508,61	-1,00
508,82	7,06
509,03	10,37
509,24	3,23
509,45	4,05
509,65	0,23
509,86	7,74
510,07	2,01
510,28	6,07
510,49	3,27
510,70	7,30
510,91	4,46
511,11	10,27
511,32	-0,96
511,53	8,76
511,74	0,37
511,95	17,88
512,16	-3,11
512,37	2,72
512,57	-4,24
512,78	11,46
512,99	14,16
513,20	11,49
513,41	-1,27
513,62	7,19
513,82	3,75
514,03	5,49
514,24	5,49
514,45	0,61
514,66	4,57
514,87	11,84
515,07	3,34
515,28	8,22
515,49	5,52
515,70	-5,03
515,91	-2,09
516,11	6,44
516,32	1,02
516,53	6,51
516,74	-2,02
516,95	5,45
517,16	-2,47
517,36	6,48
517,57	7,19
517,78	15,18
517,99	-1,82
518,20	7,26
518,40	-2,09
518,61	9,75
518,82	-0,45
519,03	7,91
519,23	-4,51
519,44	4,26
519,65	7,40
519,86	13,00
520,07	-3,69
520,27	13,92
520,48	0,40
520,69	16,10
520,90	3,71
521,10	5,28
521,31	5,08
521,52	-2,12
521,73	2,79
521,94	3,44
522,14	3,20
522,35	7,88
522,56	13,92
522,77	8,25
522,97	3,10
523,18	0,09
523,39	-0,83
523,60	5,08
523,80	-2,53
524,01	7,40
524,22	-2,57
524,43	9,14
524,63	-0,62
524,84	13,41
525,05	-0,25
525,25	1,56
525,46	-4,45
525,67	5,08
525,88	0,64
526,08	9,31
526,29	12,86
526,50	2,65
526,71	3,17
526,91	6,82
527,12	-4,41
527,33	1,84
527,53	2,96
527,74	6,61
527,95	-0,14
528,16	5,35
528,36	5,28
528,57	8,90
528,78	9,65
528,98	17,13
529,19	2,07
529,40	4,43
529,60	4,84
529,81	4,98
530,02	1,39
530,22	9,38
530,43	2,79
530,64	-2,43
530,85	-1,34
531,05	14,60
531,26	1,05
531,47	5,32
531,67	4,05
531,88	4,40
532,09	-2,26
532,29	9,72
532,50	2,42
532,71	3,88
532,91	2,28
533,12	10,47
533,33	7,71
533,53	2,31
533,74	-5,61
533,95	6,20
534,15	9,14
534,36	6,41
534,56	2,11
534,77	9,07
534,98	-2,60
535,18	5,69
535,39	1,53
535,60	9,34
535,80	6,37
536,01	3,17
536,22	3,95
536,42	6,55
536,63	0,13
536,83	9,79
537,04	12,08
537,25	3,30
537,45	-7,79
537,66	-0,66
537,87	9,41
538,07	7,54
538,28	1,70
538,48	9,21
538,69	8,59
538,90	0,23
539,10	-0,49
539,31	-1,03
539,51	0,54
539,72	5,45
539,93	6,96
540,13	10,64
540,34	6,37
540,54	0,61
540,75	-4,38
540,96	9,31
541,16	0,71
541,37	9,14
541,57	0,40
541,78	9,31
541,99	4,12
542,19	0,20
542,40	2,14
542,60	6,72
542,81	7,02
543,01	6,58
543,22	3,68
543,43	11,80
543,63	-3,90
543,84	-4,04
544,04	4,94
544,25	1,63
544,45	-1,89
544,66	0,95
544,87	2,18
545,07	1,36
545,28	7,09
545,48	10,23
545,69	0,16
545,89	8,83
546,10	6,34
546,30	1,29
546,51	8,49
546,71	6,78
546,92	1,53
547,13	13,85
547,33	2,42
547,54	9,58
547,74	4,36
547,95	9,58
548,15	9,14
548,36	9,21
548,56	-2,98
548,77	4,63
548,97	4,53
549,18	1,63
549,38	-4,31
549,59	3,20
549,79	6,07
550,00	9,11
550,20	-5,23
550,41	8,66
550,61	0,13
550,82	7,47
551,02	-5,20
551,23	11,97
551,43	-0,42
551,64	5,73
551,84	4,57
552,05	12,08
552,25	4,91
552,46	-0,96
552,66	1,63
552,87	16,10
553,07	1,46
553,28	8,93
553,48	0,50
553,69	9,45
553,89	-4,38
554,10	7,81
554,30	1,02
554,51	9,75
554,71	-1,61
554,92	7,74
555,12	2,76
555,32	3,00
555,53	-6,19
555,73	4,19
555,94	2,76
556,14	-0,55
556,35	-4,65
556,55	-2,43
556,76	-1,99
556,96	10,33
557,17	4,67
557,37	8,15
557,57	-4,38
557,78	8,15
557,98	-0,18
558,19	-0,01
558,39	0,88
558,60	6,31
558,80	2,65
559,00	5,79
559,21	-6,02
559,41	-2,91
559,62	6,51
559,82	7,88
560,03	11,15
560,23	11,80
560,43	-0,18
560,64	5,35
560,84	4,40
561,05	2,96
561,25	3,85
561,45	6,96
561,66	1,08
561,86	1,97
562,07	-1,68
562,27	7,09
562,47	4,98
562,68	15,15
562,88	2,83
563,09	4,09
563,29	-4,14
563,49	0,50
563,70	-2,09
563,90	5,45
564,11	-0,96
564,31	4,80
564,51	3,75
564,72	7,95
564,92	-2,47
565,12	-0,08
565,33	-5,06
565,53	4,74
565,74	0,20
565,94	7,57
566,14	2,42
566,35	4,40
566,55	6,41
566,75	5,52
566,96	3,03
567,16	19,55
567,36	-1,65
567,57	7,71
567,77	6,44
567,98	13,58
568,18	6,89
568,38	6,24
568,59	5,90
568,79	7,19
568,99	2,72
569,20	7,50
569,40	1,05
569,60	5,66
569,81	1,56
570,01	-2,88
570,21	-5,57
570,42	-7,41
570,62	14,50
570,82	11,73
571,03	6,34
571,23	4,16
571,43	-5,98
571,63	11,15
571,84	-5,23
572,04	4,67
572,24	0,13
572,45	12,55
572,65	4,36
572,85	6,24
573,06	-4,79
573,26	0,85
573,46	-1,41
573,67	7,40
573,87	5,32
574,07	1,36
574,27	1,73
574,48	3,20
574,68	2,93
574,88	8,83
575,09	5,39
575,29	7,02
575,49	-7,93
575,69	6,61
575,90	3,61
576,10	7,16
576,30	5,66
576,51	5,28
576,71	-0,42
576,91	8,76
577,11	9,28
577,32	-9,74
577,52	6,20
577,72	2,96
577,92	0,27
578,13	8,70
578,33	2,72
578,53	0,06
578,73	1,43
578,94	6,07
579,14	-1,20
579,34	13,47
579,54	-3,93
579,75	5,08
579,95	0,54
580,15	6,37
580,35	2,35
580,56	9,89
580,76	0,47
580,96	12,31
581,16	-0,28
581,37	6,89
581,57	-0,96
581,77	6,37
581,97	-3,52
582,17	12,59
582,38	-0,76
582,58	4,43
582,78	0,61
582,98	0,54
583,19	1,43
583,39	7,77
583,59	-7,55
583,79	9,14
583,99	5,62
584,20	4,77
584,40	2,14
584,60	7,60
584,80	8,73
585,00	5,79
585,21	-8,78
585,41	12,45
585,61	-5,50
585,81	1,84
586,01	3,44
586,22	15,04
586,42	-0,28
586,62	5,35
586,82	1,84
587,02	3,10
587,22	3,37
587,43	15,08
587,63	2,59
587,83	10,03
588,03	-6,70
588,23	-1,30
588,43	-4,72
588,64	7,09
588,84	-3,39
589,04	12,96
589,24	-0,45
589,44	14,23
589,64	-5,57
589,85	10,57
590,05	-1,78
590,25	1,02
590,45	-5,23
590,65	5,35
590,85	-2,06
591,05	6,10
591,26	1,05
591,46	4,26
591,66	-0,32
591,86	6,10
592,06	1,05
592,26	5,69
592,46	-3,90
592,67	7,54
592,87	1,56
593,07	3,85
593,27	1,43
593,47	13,99
593,67	2,11
593,87	3,64
594,07	6,65
594,28	9,55
594,48	-6,08
594,68	4,60
594,88	4,67
595,08	8,97
595,28	0,23
595,48	-0,52
595,68	4,91
595,88	8,73
596,08	-2,36
596,29	-1,71
596,49	-0,08
596,69	0,13
596,89	3,68
597,09	11,73
597,29	6,65
597,49	-4,10
597,69	-0,86
597,89	9,31
598,09	1,80
598,29	4,22
598,50	13,10
598,70	1,90
598,90	-1,34
599,10	11,90
599,30	0,95
599,50	6,51
599,70	-2,29
599,90	4,57
600,10	5,59
600,30	4,33
600,50	8,15
600,70	5,86
600,90	-0,11
601,10	10,23
601,30	-2,98
601,50	14,29
601,71	-2,70
601,91	7,47
602,11	-6,32
602,31	-0,52
602,51	-3,28
602,71	5,79
602,91	5,52
603,11	4,26
603,31	3,03
603,51	2,89
603,71	-2,81
603,91	10,78
604,11	3,37
604,31	11,56
604,51	-1,65
604,71	12,21
604,91	-1,07
605,11	6,58
605,31	4,29
605,51	14,33
605,71	6,99
605,91	7,13
606,11	0,40
606,31	4,74
606,51	0,06
606,71	4,77
606,91	-0,04
607,11	8,35
607,31	-2,50
607,51	3,95
607,71	6,55
607,91	5,62
608,11	14,26
608,31	10,57
608,51	-2,26
608,71	1,90
608,91	-2,40
609,11	-1,54
609,31	4,60
609,51	1,94
609,71	-5,64
609,91	1,29
610,11	1,15
610,31	2,01
610,51	-0,66
610,71	1,97
610,91	9,45
611,11	12,86
611,31	0,95
611,51	5,62
611,71	2,48
611,91	6,75
612,11	2,55
612,31	8,22
612,51	10,51
612,71	1,53
612,90	7,16
613,10	9,99
613,30	2,48
613,50	7,19
613,70	2,48
613,90	9,31
614,10	-0,38
614,30	11,29
614,50	7,23
614,70	5,42
614,90	-2,43
615,10	4,67
615,30	3,68
615,50	5,66
615,70	9,21
615,90	12,35
616,09	5,73
616,29	5,56
616,49	2,65
616,69	10,40
616,89	6,14
617,09	3,30
617,29	-2,88
617,49	10,98
617,69	1,36
617,89	8,15
618,09	6,48
618,28	4,91
618,48	9,58
618,68	12,25
618,88	-0,08
619,08	8,05
619,28	2,83
619,48	15,62
619,68	5,66
619,88	8,32
620,08	-0,62
620,27	8,80
620,47	0,40
620,67	5,56
620,87	1,43
621,07	16,82
621,27	1,87
621,47	8,39
621,67	7,40
621,86	4,91
622,06	-6,08
622,26	13,61
622,46	6,48
622,66	8,80
622,86	2,79
623,06	4,36
623,25	2,55
623,45	5,42
623,65	3,88
623,85	9,48
624,05	0,06
624,25	-4,21
624,45	-1,85
624,64	8,46
624,84	-4,72
625,04	7,47
625,24	4,91
625,44	0,57
625,64	8,39
625,83	8,15
626,03	0,74
626,23	9,41
626,43	0,27
626,63	0,61
626,83	5,21
627,02	7,81
627,22	-2,02
627,42	6,85
627,62	-0,45
627,82	6,41
628,02	2,52
628,21	7,98
628,41	6,82
628,61	11,53
628,81	-2,53
629,01	8,35
629,20	-4,24
629,40	7,54
629,60	3,99
629,80	-0,08
630,00	-3,01
630,19	8,32
630,39	1,15
630,59	1,29
630,79	2,55
630,99	4,67
631,18	10,37
631,38	6,61
631,58	-5,43
631,78	8,73
631,98	-4,38
632,17	5,35
632,37	-6,60
632,57	8,97
632,77	0,09
632,96	3,23
633,16	-1,65
633,36	3,99
633,56	6,44
633,76	5,28
633,95	8,15
634,15	4,46
634,35	-5,95
634,55	10,03
634,74	5,59
634,94	5,97
635,14	0,23
635,34	7,13
635,53	4,94
635,73	-2,60
635,93	2,55
636,13	5,93
636,32	10,10
636,52	7,26
636,72	2,38
636,92	12,76
637,11	3,95
637,31	13,99
637,51	7,84
637,70	9,86
637,90	-4,38
638,10	15,11
638,30	9,17
638,49	6,27
638,69	2,55
638,89	15,01
639,09	-2,06
639,28	8,73
639,48	-0,25
639,68	3,44
639,87	7,13
640,07	4,33
640,27	0,33
640,47	6,27
640,66	0,71
640,86	13,82
641,06	7,26
641,25	14,64
641,45	4,67
641,65	19,72
641,84	10,91
642,04	5,49
642,24	4,98
642,44	7,09
642,63	-2,09
642,83	1,80
643,03	1,19
643,22	5,49
643,42	5,83
643,62	5,18
643,81	3,10
644,01	10,16
644,21	6,55
644,40	5,21
644,60	6,82
644,80	8,53
644,99	9,38
645,19	5,93
645,39	9,45
645,58	12,14
645,78	5,32
645,98	15,93
646,17	10,57
646,37	10,16
646,57	14,50
646,76	6,85
646,96	5,42
647,16	7,40
647,35	15,86
647,55	8,66
647,75	1,05
647,94	7,98
648,14	9,79
648,33	7,57
648,53	8,53
648,73	7,19
648,92	-1,20
649,12	8,49
649,32	16,82
649,51	17,47
649,71	7,74
649,90	18,77
650,10	20,27
650,30	27,50
650,49	46,92
650,69	82,32
650,89	200,66
651,08	312,31
651,28	836,38
651,47	1128,83
651,67	2261,50
651,87	2713,45
652,06	4192,73
652,26	4851,22
652,45	6562,71
652,65	7329,37
652,85	9259,23
653,04	10235,81
653,24	12262,07
653,43	13575,87
653,63	15544,11
653,83	17239,18
654,02	19444,91
654,22	20681,17
654,41	23076,40
654,61	24851,24
654,81	27007,65
655,00	29043,23
655,20	30842,81
655,39	32779,40
655,59	34981,52
655,78	36345,05
655,98	38566,69
656,18	40395,70
656,37	41965,64
656,57	43212,64
656,76	44546,79
656,96	45793,90
657,15	47488,05
657,35	47215,16
657,55	48862,55
657,74	49030,58
657,94	49545,75
658,13	49762,49
658,33	49728,33
658,52	49618,69
658,72	49372,87
658,91	48794,59
659,11	48472,10
659,30	47364,94
659,50	46908,99
659,70	45510,36
659,89	44257,72
660,09	42882,75
660,28	41743,30
660,48	39588,63
660,67	37983,16
660,87	35948,94
661,06	34423,68
661,26	31911,85
661,45	30661,87
661,65	28231,72
661,84	26298,37
662,04	24359,22
662,23	22476,59
662,43	20097,87
662,62	18846,46
662,82	16488,60
663,01	15078,13
663,21	12951,21
663,41	11824,55
663,60	9983,81
663,80	8868,38
663,99	6998,58
664,19	6226,29
664,38	4587,00
664,58	3946,53
664,77	2632,79
664,97	2172,10
665,16	1032,17
665,35	784,60
665,55	290,53
665,74	216,43
665,94	91,54
666,13	65,63
666,33	47,61
666,52	31,36
666,72	23,37
666,91	14,19
667,11	30,37
667,30	20,98
667,50	20,98
667,69	10,33
667,89	19,55
668,08	13,78
668,28	16,68
668,47	13,47
668,67	14,91
668,86	7,06
669,05	18,80
669,25	8,66
669,44	21,70
669,64	6,51
669,83	14,87
670,03	5,49
670,22	15,39
670,42	1,15
670,61	15,86
670,81	9,34
671,00	23,17
671,19	8,08
671,39	19,14
671,58	3,88
671,78	12,01
671,97	-1,27
672,17	18,53
672,36	5,08
672,55	11,97
672,75	1,73
672,94	10,20
673,14	7,33
673,33	6,07
673,53	12,04
673,72	3,44
673,91	3,71
674,11	18,32
674,30	7,40
674,50	11,32
674,69	6,00
674,88	4,67
675,08	4,09
675,27	11,29
675,47	12,72
675,66	10,03
675,85	6,61
676,05	5,90
676,24	3,75
676,44	5,76
676,63	2,38
676,82	14,57
677,02	6,10
677,21	10,30
677,41	6,00
677,60	8,93
677,79	6,51
677,99	7,64
678,18	6,10
678,37	17,64
678,57	5,15
678,76	7,36
678,96	8,22
679,15	0,81
679,34	7,88
679,54	21,53
679,73	1,94
679,92	10,40
680,12	6,92
680,31	5,83
680,51	5,21
680,70	13,51
680,89	4,05
681,09	10,13
681,28	8,08
681,47	11,63
681,67	-0,11
681,86	12,38
682,05	-0,14
682,25	8,97
682,44	5,93
682,63	11,19
682,83	0,33
683,02	9,86
683,21	13,13
683,41	8,25
683,60	15,42
683,79	4,40
683,99	9,96
684,18	10,74
684,37	8,08
684,57	14,33
684,76	1,94
684,95	5,49
685,15	2,83
685,34	10,61
685,53	1,49
685,73	12,69
685,92	7,40
686,11	10,85
686,31	10,23
686,50	12,86
686,69	8,49
686,88	5,86
687,08	15,04
687,27	7,60
687,46	4,43
687,66	12,66
687,85	8,56
688,04	6,48
688,24	6,82
688,43	12,83
688,62	-5,26
688,81	18,22
689,01	1,90
689,20	13,41
689,39	-2,67
689,59	18,36
689,78	0,16
689,97	9,28
690,16	4,91
690,36	13,85
690,55	-4,34
690,74	9,86
690,93	8,80
691,13	3,58
691,32	7,50
691,51	7,74
691,70	1,22
691,90	6,41
692,09	6,99
692,28	7,95
692,48	3,06
692,67	13,99
692,86	3,61
693,05	12,08
693,25	3,03
693,44	-2,06
693,63	1,05
693,82	1,73
694,01	0,33
694,21	4,63
694,40	6,61
694,59	9,04
694,78	-9,63
694,98	6,17
695,17	13,92
695,36	8,53
695,55	6,03
695,75	7,36
695,94	3,92
696,13	9,72
696,32	2,96
696,51	12,55
696,71	6,99
696,90	9,41
697,09	6,55
697,28	10,54
697,48	-10,28
697,67	16,75
697,86	9,17
698,05	16,21
698,24	-0,14
698,44	10,13
698,63	-1,20
698,82	5,76
699,01	-1,89
699,20	7,91
699,40	-2,91
699,59	9,79
699,78	4,22
699,97	12,72
700,16	10,88
700,36	15,59
700,55	2,62
700,74	10,30
700,93	4,26
701,12	3,06
701,31	-0,72
701,51	3,64
701,70	-1,00
701,89	7,23
702,08	4,77
702,27	8,90
702,46	5,35
702,66	2,89
702,85	6,92
703,04	11,05
703,23	2,69
703,42	13,88
703,61	11,73
703,81	15,69
704,00	9,04
704,19	11,36
704,38	5,83
704,57	8,22
704,76	-4,24
704,96	13,27
705,15	0,50
705,34	2,52
705,53	-4,04
705,72	11,05
705,91	0,61
706,10	11,63
706,30	10,20
706,49	15,45
706,68	-0,49
706,87	4,05
707,06	9,75
707,25	9,31
707,44	4,46
707,63	15,76
707,83	3,41
708,02	3,78
708,21	5,08
708,40	12,62
708,59	5,93
708,78	14,29
708,97	4,36
709,16	7,40
709,35	0,13
709,55	7,19
709,74	0,40
709,93	8,35
710,12	1,56
710,31	12,52
710,50	-2,98
710,69	0,57
710,88	3,20
711,07	9,17
711,26	2,11
711,46	10,37
711,65	5,45
711,84	-1,58
712,03	4,50
712,22	10,91
712,41	7,09
712,60	15,04
712,79	-0,69
712,98	3,68
713,17	3,27
713,36	14,81
713,55	8,46
713,75	9,58
713,94	-1,89
714,13	-2,67
714,32	-1,10
714,51	3,54
714,70	7,81
714,89	4,46
715,08	3,95
715,27	8,25
715,46	4,43
715,65	12,69
715,84	9,38
716,03	12,55
716,22	-0,93
716,41	5,45
716,60	2,69
716,79	11,36
716,99	0,91
717,18	10,54
717,37	-2,12
717,56	9,52
717,75	1,53
717,94	5,49
718,13	2,38
718,32	9,45
718,51	3,20
718,70	4,74
718,89	-1,24
719,08	8,76
719,27	4,50
719,46	19,35
719,65	7,26
719,84	5,62
720,03	7,74
720,22	6,55
720,41	0,78
720,60	1,12
720,79	11,53
720,98	10,47
721,17	0,85
721,36	11,15
721,55	10,98
721,74	8,01
721,93	-0,04
722,12	10,61
722,31	5,08
722,50	2,14
722,69	-0,14
722,88	13,95
723,07	0,03
723,26	3,78
723,45	-1,48
723,64	10,20
723,83	-4,82
724,02	11,94
724,21	-1,95
724,40	12,25
724,59	0,95
724,78	8,53
724,97	-2,94
725,16	10,78
725,35	-2,36
725,54	-2,77
725,73	3,30
725,92	4,67
726,11	3,71
726,30	9,14
726,49	4,19
726,68	4,74
726,87	-3,22
727,06	4,98
727,25	-1,03
727,43	1,29
727,62	-0,69
727,81	12,11
728,00	0,33
728,19	3,92
728,38	-1,44
728,57	17,16
728,76	3,82
728,95	2,69
729,14	1,02
729,33	1,12
729,52	1,36
729,71	7,09
729,90	5,11
730,09	6,10
730,28	3,47
730,47	0,64
730,65	-2,50
730,84	12,45
731,03	6,31
731,22	1,43
731,41	0,13
731,60	9,55
731,79	5,32
731,98	5,42
732,17	-2,81
732,36	9,92
732,55	1,84
732,74	5,28
732,92	1,70
733,11	6,58
733,30	4,19
733,49	4,91
733,68	-2,33
733,87	13,00
734,06	-2,33
734,25	11,36
734,44	-8,37
734,63	19,69
734,81	5,08
735,00	2,42
735,19	1,56
735,38	0,06
735,57	3,75
735,76	5,39
735,95	-2,40
736,14	11,46
736,33	0,40
736,51	7,57
736,70	6,61
736,89	9,45
737,08	2,65
737,27	8,22
737,46	0,67
737,65	10,03
737,83	-3,01
738,02	10,57
738,21	5,62
738,40	7,06
738,59	5,49
738,78	0,88
738,97	-3,97
739,16	1,63
739,34	8,93
739,53	7,40
739,72	-1,27
739,91	8,22
740,10	6,44
740,29	4,60
740,47	2,76
740,66	4,80
740,85	5,76
741,04	-1,71
741,23	-0,55
741,42	3,10
741,60	2,42
741,79	8,56
741,98	12,08
742,17	4,29
742,36	2,55
742,55	7,91
742,73	8,29
742,92	9,52
743,11	-8,03
743,30	8,18
743,49	0,09
743,68	12,21
743,86	-2,67
744,05	6,85
744,24	-1,48
744,43	9,41
744,62	4,22
744,80	11,97
744,99	1,53
745,18	-1,44
745,37	-6,56
745,56	8,29
745,74	1,97
745,93	4,84
746,12	2,21
746,31	-4,41
746,50	-1,03
746,68	9,69
746,87	2,72
747,06	2,72
747,25	-6,63
747,44	3,00
747,62	5,42
747,81	6,89
748,00	-4,89
748,19	5,01
748,37	1,05
748,56	4,84
748,75	9,62
748,94	4,84
749,13	-2,33
749,31	13,75
749,50	-1,07
749,69	1,32
749,88	-1,13
750,06	6,31
750,25	0,98
750,44	6,99
750,63	-0,38
750,81	7,88
751,00	8,59
751,19	10,64
751,38	2,07
751,56	7,57
751,75	8,59
751,94	8,39
752,13	-1,13
752,31	-4,24
752,50	-2,67
752,69	6,00
752,88	6,20
753,06	8,22
753,25	4,80
753,44	4,33
753,63	-6,32
753,81	7,43
754,00	0,23
754,19	9,99
754,37	-1,00
754,56	4,77
754,75	3,34
754,94	7,13
755,12	-2,50
755,31	5,73
755,50	3,23
755,69	12,89
755,87	-0,04
756,06	8,80
756,25	-0,72
756,43	12,21
756,62	9,41
756,81	3,64
756,99	7,36
757,18	-0,45
757,37	7,95
757,56	15,35
757,74	-0,86
757,93	10,88
758,12	5,69
758,30	5,69
758,49	-8,81
758,68	9,92
758,86	0,06
759,05	6,41
759,24	2,24
759,42	9,92
759,61	-3,63
759,80	7,81
759,99	-0,32
760,17	11,73
760,36	-1,13
760,55	2,01
760,73	-0,01
760,92	8,53
761,11	9,72
761,29	13,51
761,48	1,53
761,67	6,44
761,85	-2,33
762,04	6,82
762,23	-8,34
762,41	1,36
762,60	7,57
762,79	2,38
762,97	-7,28
763,16	1,39
763,34	-3,18
763,53	12,14
763,72	-2,47
763,90	2,59
764,09	9,65
764,28	3,58
764,46	8,15
764,65	3,75
764,84	-1,99
765,02	3,23
765,21	5,73
765,40	9,28
765,58	2,24
765,77	12,18
765,95	-5,81
766,14	8,25
766,33	1,56
766,51	11,60
766,70	1,56
766,89	4,19
767,07	-0,55
767,26	7,95
767,44	5,86
767,63	-0,38
767,82	1,19
768,00	4,94
768,19	-6,05
768,37	3,00
768,56	6,10
768,75	7,50
768,93	-0,04
769,12	6,14
769,30	2,83
769,49	14,16
769,68	6,65
769,86	14,67
770,05	-1,00
770,23	4,60
770,42	-0,86
770,61	12,72
770,79	8,22
770,98	13,71
771,16	1,22
771,35	4,60
771,54	-2,26
771,72	5,21
771,91	-2,06
772,09	12,83
772,28	2,65
772,46	12,42
772,65	4,02
772,84	3,78
773,02	-0,45
773,21	4,84
773,39	4,29
773,58	1,53
773,76	2,48
773,95	6,31
774,13	-1,68
774,32	13,71
774,51	6,37
774,69	6,03
774,88	6,96
775,06	14,36
775,25	6,17
775,43	0,85
775,62	4,87
775,80	9,89
775,99	6,20
776,18	10,30
776,36	4,12
776,55	9,79
776,73	3,51
776,92	14,46
777,10	-2,60
777,29	0,54
777,47	3,51
777,66	8,73
777,84	0,06
778,03	5,39
778,21	3,06
778,40	0,20
778,58	5,45
778,77	10,10
778,95	-7,89
779,14	11,56
779,33	4,70
779,51	9,58
779,70	1,12
779,88	4,26
780,07	-3,18
780,25	2,52
780,44	11,22
780,62	-4,51
780,81	-1,41
780,99	9,48
781,18	6,82
781,36	3,78
781,55	3,58
781,73	7,60
781,92	-0,59
782,10	7,30
782,29	6,55
782,47	9,69
782,66	-0,69
782,84	6,82
783,03	5,76
783,21	1,80
783,39	-2,64
783,58	10,88
783,76	1,80
783,95	2,18
784,13	7,33
784,32	14,05
784,50	7,54
784,69	4,33
784,87	-2,29
785,06	11,22
785,24	4,98
785,43	6,92
785,61	2,11
785,80	1,56
785,98	-3,59
786,17	2,35
786,35	-1,89
786,53	0,98
786,72	-4,48
786,90	2,28
787,09	-0,21
787,27	1,22
787,46	-1,71
787,64	6,03
787,83	1,53
788,01	2,11
788,19	8,05
788,38	9,34
788,56	4,60
788,75	4,40
788,93	1,05
789,12	11,05
789,30	5,86
789,49	4,29
789,67	-1,20
789,85	-0,42
790,04	-1,37
790,22	6,65
790,41	-2,16
790,59	13,51
790,77	0,57
790,96	-2,26
791,14	1,97
791,33	6,55
791,51	-0,04
791,70	6,24
791,88	6,14
792,06	11,53
792,25	5,45
792,43	5,49
792,62	-0,83
792,80	8,53
792,98	6,99
793,17	11,77
793,35	-2,33
793,54	-0,59
793,72	6,85
793,90	12,14
794,09	-4,17
794,27	5,52
794,46	-3,63
794,64	3,20
794,82	2,21
795,01	3,34
795,19	1,05
795,37	10,51
795,56	1,39
795,74	17,09
795,93	5,49
796,11	6,85
796,29	8,32
796,48	3,17
796,66	6,92
796,84	10,44
797,03	10,44
797,21	8,46
797,40	2,89
797,58	11,56
797,76	15,18
797,95	9,86
798,13	-1,37
798,31	8,29
798,50	-3,28
798,68	13,51
798,86	0,91
799,05	12,25
799,23	0,98
799,42	6,10
799,60	8,18
799,78	12,31
799,97	5,76
800,15	8,05
800,33	3,92
800,52	-0,59
800,70	1,77
800,88	10,51
801,07	6,75
801,25	3,68
801,43	0,98
801,62	10,44
801,80	6,41
801,98	5,04
802,17	-1,27
802,35	11,67
802,53	5,15
802,72	1,05
802,90	0,40
803,08	-0,08
803,26	-1,24
803,45	5,97
803,63	8,01
803,81	10,68
804,00	0,50
804,18	4,19
804,36	4,63
804,55	10,61
804,73	-4,21
804,91	12,31
805,10	-5,47
805,28	11,19
805,46	-1,00
805,64	7,16
805,83	-2,53
806,01	12,01
806,19	-4,07
806,38	10,44
806,56	7,02
806,74	-0,45
806,92	5,21
807,11	2,21
807,29	6,89
807,47	14,53
807,66	4,91
807,84	-0,25
808,02	4,43
808,20	13,00
808,39	-2,02
808,57	-2,53
808,75	-2,43
808,94	2,31
809,12	0,13
809,30	13,61
809,48	3,78
809,67	6,75
809,85	2,04
810,03	2,14
810,21	-1,95
810,40	-0,35
810,58	2,62
810,76	4,53
810,94	4,16
811,13	9,82
811,31	0,81
811,49	10,47
811,67	-1,48
811,86	4,33
812,04	-1,54
812,22	8,76
812,40	0,27
812,59	4,43
812,77	-1,85
812,95	12,89
813,13	-1,95
813,32	8,83
813,50	0,88
813,68	13,71
813,86	3,41
814,04	-0,69
814,23	2,52
814,41	6,58
814,59	4,91
814,77	8,18
814,96	-3,28
815,14	5,21
815,32	-2,84
815,50	-4,24
815,68	-4,62
815,87	3,37
816,05	6,10
816,23	-1,34
816,41	-4,85
816,59	10,16
816,78	-2,74
816,96	3,03
817,14	9,11
817,32	12,55
817,50	-3,69
817,69	10,20
817,87	11,84
818,05	10,30
818,23	-0,11
818,41	18,97
818,60	-2,50
818,78	6,72
818,96	8,63
819,14	10,40
819,32	6,96
819,51	8,90
819,69	2,24
819,87	7,57
820,05	-1,78
820,23	-0,69
820,41	4,84
820,60	6,24
820,78	-1,68
820,96	8,32
821,14	3,13
821,32	11,19
821,50	3,64
821,69	3,20
821,87	-4,68
822,05	11,43
822,23	4,46
822,41	4,40
822,59	-5,91
822,78	-1,34
822,96	4,36
823,14	7,19
823,32	6,14
823,50	-1,30
823,68	2,83
823,86	5,66
824,05	-1,20
824,23	6,34
824,41	-0,32
824,59	5,90
824,77	6,44
824,95	9,62
825,13	3,75
825,32	6,00
825,50	-3,49
825,68	4,02
825,86	-0,62
826,04	2,52
826,22	-7,38
826,40	5,04
826,58	2,55
826,77	10,47
826,95	2,52
827,13	8,42
827,31	-0,76
827,49	4,63
827,67	7,26
827,85	7,95
828,03	-9,94
828,22	6,41
828,40	-7,89
828,58	5,83
828,76	-7,11
828,94	3,51
829,12	-5,78
829,30	11,73
829,48	-5,33
829,66	7,95
829,84	0,50
830,03	1,84
830,21	4,29
830,39	9,00
830,57	3,92
830,75	1,77
830,93	2,38
831,11	2,21
831,29	-1,10
831,47	5,76
831,65	-2,88
831,83	-2,02
832,02	7,50
832,20	14,98
832,38	-5,91
832,56	3,41
832,74	2,28
832,92	1,84
833,10	5,69
833,28	8,76
833,46	6,82
833,64	5,86
833,82	5,66
834,00	4,36
834,18	3,10
834,36	13,95
834,54	4,36
834,73	13,99
834,91	11,97
835,09	10,64
835,27	12,72
835,45	2,07
835,63	2,45
835,81	4,53
835,99	3,10
836,17	6,27
836,35	6,65
836,53	-0,72
836,71	0,30
836,89	8,05
837,07	1,87
837,25	12,52
837,43	-1,41
837,61	10,61
837,79	-4,65
837,97	4,67
838,15	-3,80
838,33	5,15
838,51	0,30
838,69	17,30
838,87	0,50
839,05	1,87
839,23	4,02
839,41	4,50
839,59	0,71
839,78	3,92
839,96	5,97
840,14	6,44
840,32	-0,32
840,50	14,67
840,68	-4,45
840,86	3,71
841,04	-6,66
841,22	2,65
841,40	5,01
841,58	8,80
841,76	3,88
841,94	3,99
842,12	4,98
842,30	3,10
842,48	-2,60
842,66	7,77
842,84	6,34
843,02	6,58
843,20	-6,19
843,38	6,99
843,55	0,98
843,73	5,93
843,91	1,43
844,09	9,82
844,27	5,21
844,45	6,96
844,63	0,16
844,81	-3,08
844,99	4,77
845,17	-2,70
845,35	-6,05
845,53	-1,48
845,71	1,32
845,89	11,43
846,07	5,28
846,25	9,82
846,43	5,28
846,61	5,18
846,79	-4,45
846,97	4,19
847,15	-0,25
847,33	12,48
847,51	10,78
847,69	9,07
847,87	11,02
848,05	9,69
848,23	3,99
848,41	1,15
848,58	8,18
848,76	10,30
848,94	10,16
849,12	2,24
849,30	6,34
849,48	-2,23
849,66	-7,35
849,84	9,24
850,02	0,23
850,20	12,01
850,38	-2,60
850,56	10,98
850,74	2,89
850,92	0,23
851,10	5,01
851,27	7,13
851,45	-0,25
851,63	9,92
851,81	-3,59
851,99	1,02
852,17	5,18
852,35	5,15
852,53	6,78
852,71	10,95
852,89	5,93
853,07	3,75
853,24	4,43
853,42	7,60
853,60	7,57
853,78	7,77
853,96	2,28
854,14	9,45
854,32	7,47
854,50	9,72
854,68	1,70
854,86	5,52
855,03	-2,43
855,21	-7,11
855,39	-0,52
855,57	4,98
855,75	2,45
855,93	1,66
856,11	-2,33
856,29	-0,42
856,47	5,49
856,64	0,98
856,82	12,83
857,00	-0,62
857,18	-4,99
857,36	9,00
857,54	1,77
857,72	7,98
857,90	5,35
858,07	-2,70
858,25	2,35
858,43	10,68
858,61	5,62
858,79	8,70
858,97	-0,59
859,15	-0,18
859,32	7,81
859,50	-0,90
859,68	5,21
859,86	5,25
860,04	-0,32
860,22	8,63
860,40	-2,12
860,57	5,15
860,75	0,64
860,93	4,70
861,11	7,06
861,29	10,23
861,47	-1,71
861,64	3,47
861,82	2,79
862,00	3,99
862,18	0,88
862,36	6,27
862,54	0,88
862,71	3,34
862,89	-2,70
863,07	6,10
863,25	-1,30
863,43	-4,75
863,61	-2,29
863,78	0,78
863,96	4,46
864,14	2,86
864,32	6,61
864,50	12,59
864,67	2,65
864,85	11,90
865,03	7,60
865,21	12,66
865,39	4,36
865,57	10,44
865,74	10,95
865,92	7,16
866,10	9,72
866,28	3,41
866,46	-2,02
866,63	16,51
866,81	-0,59
866,99	8,46
867,17	-0,04
867,34	11,90
867,52	6,92
867,70	10,23
867,88	0,20
868,06	13,37
868,23	4,19
868,41	2,59
868,59	-2,98
868,77	7,54
868,95	-1,75
869,12	7,74
869,30	12,25
869,48	13,24
869,66	1,94
869,83	3,75
870,01	13,82
870,19	4,70
870,37	4,87
870,55	3,68
870,72	-0,28
870,90	10,03
871,08	4,74
871,26	8,83
871,43	3,99
871,61	5,45
871,79	1,56
871,97	13,47
872,14	5,18
872,32	8,87
872,50	4,16
872,68	0,54
872,85	9,75
873,03	8,01
873,21	6,72
873,39	4,84
873,56	7,26
873,74	6,61
873,92	-1,65
874,10	3,13
874,27	-3,59
874,45	6,51
874,63	-5,61
874,80	9,24
874,98	-2,19
875,16	-2,02
875,34	0,06
875,51	6,89
875,69	9,65
875,87	4,02
876,05	1,05
876,22	3,61
876,40	2,38
876,58	14,09
876,75	-5,47
876,93	8,73
877,11	5,39
877,29	7,64
877,46	6,75
877,64	8,46
877,82	-9,12
877,99	8,32
878,17	-2,29
878,35	8,25
878,52	0,81
878,70	10,81
878,88	-3,46
879,06	3,17
879,23	1,90
879,41	2,89
879,59	1,63
879,76	4,36
879,94	-5,06
880,12	5,21
880,29	4,67
880,47	9,92
880,65	3,41
880,82	7,64
881,00	4,91
881,18	14,50
881,36	2,45
881,53	15,52
881,71	3,64
881,89	1,63
882,06	9,07
882,24	-1,03
882,42	5,97
882,59	5,97
882,77	0,33
882,95	8,32
883,12	-7,45
883,30	6,99
883,48	-4,38
883,65	5,79
883,83	3,99
884,01	2,28
884,18	-6,60
884,36	3,85
884,54	-2,67
884,71	6,92
884,89	5,86
885,06	2,59
885,24	-2,50
885,42	2,45
885,59	-1,85
885,77	-8,23
885,95	-2,02
886,12	10,85
886,30	13,13
886,48	0,37
886,65	5,69
886,83	18,01
887,01	2,24
887,18	2,65
887,36	-4,04
887,53	5,59
887,71	4,02
887,89	10,27
888,06	-1,51
888,24	4,53
888,42	-0,72
888,59	11,97
888,77	2,69
888,94	6,58
889,12	2,45
889,30	11,94
889,47	4,26
889,65	6,48
889,82	-2,36
890,00	4,26
890,18	6,27
890,35	7,60
890,53	-3,28
890,71	-1,92
890,88	2,59
891,06	6,34
891,23	7,47
891,41	11,15
891,59	6,55
891,76	2,79
891,94	5,59
892,11	4,40
892,29	-2,77
892,46	-4,85
892,64	-5,67
892,82	9,00
892,99	0,03
893,17	13,54
893,34	-6,12
893,52	5,18
893,70	-4,85
893,87	-2,47
894,05	7,98
894,22	9,48
894,40	-0,11
894,57	3,13
894,75	4,40
894,93	-1,54
895,10	0,88
895,28	4,63
895,45	4,19
895,63	9,45
895,80	1,05
895,98	6,10
896,16	-1,37
896,33	3,10
896,51	4,09
896,68	2,11
896,86	1,15
897,03	8,32
897,21	4,22
897,38	6,37
897,56	-1,95
897,74	6,82
897,91	6,27
898,09	-6,25
898,26	1,32
898,44	6,24
898,61	8,87
898,79	8,87
898,96	-0,62
899,14	10,40
899,31	1,66
899,49	10,13
899,67	0,98
899,84	6,17
900,02	1,73
900,19	-1,00
900,37	3,30
900,54	10,16
900,72	-4,14
900,89	9,62
901,07	2,48
901,24	3,06
901,42	-1,78
901,59	-2,67
901,77	-3,39
901,94	8,76
902,12	-2,40
902,29	-0,01
902,47	8,90
902,64	-1,41
902,82	0,50
902,99	7,81
903,17	8,25
903,34	2,93
903,52	1,87
903,69	3,41
903,87	2,86
904,04	6,96
904,22	3,88
904,39	10,74
904,57	11,46
904,74	4,77
904,92	1,84
905,09	-1,00
905,27	-1,82
905,44	9,14
905,62	8,59
905,79	6,72
905,97	-1,00
906,14	7,06
906,32	2,35
906,49	2,01
906,67	-1,27
906,84	1,60
907,02	8,73
907,19	10,13
907,37	-5,84
907,54	4,91
907,72	4,63
907,89	-1,20
908,06	0,85
908,24	0,61
908,41	-3,56
908,59	6,55
908,76	10,20
908,94	9,86
909,11	4,87
909,29	7,40
909,46	9,11
909,64	4,26
909,81	6,31
909,99	2,89
910,16	10,23
910,33	6,37
910,51	-1,78
910,68	1,97
910,86	8,63
911,03	-1,10
911,21	3,27
911,38	6,55
911,56	17,74
911,73	12,59
911,90	-2,64
912,08	-2,23
912,25	-6,87
912,43	7,50
912,60	3,34
912,78	7,16
912,95	5,25
913,12	10,91
913,30	1,66
913,47	7,30
913,65	2,21
913,82	6,89
914,00	-4,72
914,17	1,73
914,34	5,11
914,52	5,86
914,69	-2,19
914,87	5,35
915,04	-2,53
915,21	15,90
915,39	4,63
915,56	15,66
915,74	-1,82
915,91	1,90
916,08	5,08
916,26	3,03
916,43	-0,21
916,61	10,91
916,78	-4,55
916,95	7,33
917,13	5,18
917,30	10,54
917,48	-1,34
917,65	14,43
917,82	0,88
918,00	-2,53
918,17	8,66
918,35	5,49
918,52	1,05
918,69	0,78
918,87	5,56
919,04	-2,60
919,22	1,97
919,39	1,08
919,56	1,36
919,74	8,53
919,91	-0,42
920,08	6,51
920,26	1,77
920,43	9,62
920,61	7,26
920,78	6,85
920,95	5,59
921,13	13,44
921,30	0,09
921,47	7,64
921,65	-2,47
921,82	12,18
921,99	-0,49
922,17	8,56
922,34	2,83
922,51	0,95
922,69	4,46
922,86	5,62
923,04	3,88
923,21	2,42
923,38	1,77
923,56	7,09
923,73	1,84
923,90	11,12
924,08	3,00
924,25	8,22
924,42	-0,49
924,60	1,05
924,77	-1,78
924,94	2,89
925,12	-0,28
925,29	1,02
925,46	0,64
925,64	7,95
925,81	7,40
925,98	10,20
926,16	-0,21
926,33	10,27
926,50	-1,65
926,68	8,49
926,85	1,94
927,02	1,73
927,19	2,72
927,37	11,43
927,54	-6,49
927,71	3,13
927,89	3,99
928,06	6,55
928,23	4,87
928,41	-2,53
928,58	3,82
928,75	-0,11
928,93	-4,24
929,10	9,41
929,27	1,97
929,44	3,13
929,62	-2,23
929,79	3,88
929,96	9,24
930,14	4,12
930,31	0,40
930,48	13,20
930,66	-6,29
930,83	6,65
931,00	-9,09
931,17	15,28
931,35	5,04
931,52	7,26
931,69	-1,71
931,87	8,05
932,04	6,82
932,21	0,74
932,38	-3,18
932,56	6,24
932,73	4,02
932,90	2,93
933,07	1,60
933,25	10,20
933,42	1,70
933,59	11,15
933,77	-6,83
933,94	3,95
934,11	5,08
934,28	1,73
934,46	5,49
934,63	7,57
934,80	1,73
934,97	7,98
935,15	1,87
935,32	5,49
935,49	-3,59
935,66	9,28
935,84	6,00
936,01	11,49
936,18	0,61
936,35	8,18
936,53	8,15
936,70	1,66
936,87	3,95
937,04	-1,24
937,22	-2,06
937,39	1,94
937,56	7,09
937,73	-4,07
937,91	8,70
938,08	11,73
938,25	-0,11
938,42	1,56
938,59	-2,09
938,77	7,16
938,94	5,83
939,11	-2,74
939,28	7,16
939,46	2,04
939,63	5,45
939,80	11,63
939,97	0,74
940,14	8,66
940,32	1,26
940,49	6,96
940,66	2,96
940,83	8,93
941,00	-4,48
941,18	1,77
941,35	-1,71
941,52	2,79
941,69	-2,84
941,87	2,38
942,04	3,78
942,21	8,59
942,38	1,02
942,55	10,88
942,73	8,35
942,90	9,21
943,07	2,14
943,24	3,10
943,41	5,39
943,58	7,36
943,76	2,14
943,93	-1,44
944,10	-0,59
944,27	8,66
944,44	-0,59
944,62	2,59
944,79	-0,62
944,96	3,44
945,13	-0,55
945,30	3,88
945,47	-1,78
945,65	4,87
945,82	1,80
945,99	15,15
946,16	1,84
946,33	3,95
946,50	-2,02
946,68	-2,98
946,85	2,31
947,02	19,17
947,19	-3,25
947,36	8,80
947,53	-0,90
947,71	7,71
947,88	0,23
948,05	-0,01
948,22	0,40
948,39	1,32
948,56	3,64
948,74	8,49
948,91	5,93
949,08	9,31
949,25	2,07
949,42	12,83
949,59	3,58
949,76	6,96
949,94	1,26
950,11	5,01
950,28	3,92
950,45	7,06
950,62	5,42
950,79	4,94
950,96	-3,83
951,14	6,10
951,31	10,30
951,48	0,13
951,65	-1,58
951,82	5,76
951,99	1,63
952,16	8,05
952,33	3,68
952,51	3,58
952,68	-1,54
952,85	6,27
953,02	-3,90
953,19	2,38
953,36	2,65
953,53	10,44
953,70	2,35
953,87	-1,00
954,05	0,50
954,22	1,66
954,39	-1,34
954,56	7,95
954,73	-5,47
954,90	8,56
955,07	2,07
955,24	11,90
955,41	-0,86
955,58	5,56
955,76	3,37
955,93	3,99
956,10	1,05
956,27	4,19
956,44	-4,38
956,61	6,68
956,78	-6,42
956,95	0,50
957,12	7,40
957,29	11,56
957,46	9,62
957,64	1,19
957,81	-3,76
957,98	11,02
958,15	-4,62
958,32	8,32
958,49	4,53
958,66	4,70
958,83	-2,43
959,00	7,09
959,17	0,88
959,34	1,97
959,51	5,28
959,68	8,25
959,85	-8,71
960,03	2,69
960,20	-3,63
960,37	9,28
960,54	3,51
960,71	6,37
960,88	6,99
961,05	2,93
961,22	-4,82
961,39	9,96
961,56	3,61
961,73	9,11
961,90	-2,57
962,07	14,16
962,24	6,75
962,41	6,51
962,58	0,78
962,75	7,74
962,92	4,16
963,09	8,56
963,26	1,02
963,44	-1,30
963,61	0,88
963,78	5,18
963,95	-3,93
964,12	11,19
964,29	-3,42
964,46	5,69
964,63	-1,95
964,80	3,10
964,97	2,86
965,14	1,73
965,31	-3,76
965,48	-3,97
965,65	2,18
965,82	5,21
965,99	5,56
966,16	8,56
966,33	-1,27
966,50	7,30
966,67	8,93
966,84	9,17
967,01	-0,86
967,18	6,27
967,35	11,97
967,52	4,05
967,69	5,76
967,86	3,75
968,03	3,03
968,20	11,80
968,37	-8,06
968,54	6,17
968,71	6,24
968,88	11,67
969,05	-1,89
969,22	7,71
969,39	2,93
969,56	9,41
969,73	8,25
969,90	5,52
970,07	4,43
970,24	-7,89
970,41	-5,91
970,58	8,63
970,75	-0,86
970,92	7,09
971,09	7,64
971,26	5,39
971,43	12,08
971,60	7,47
971,77	-2,67
971,94	5,18
972,11	-3,28
972,28	8,66
972,45	6,20
972,62	17,37
972,79	0,91
972,96	6,55
973,12	1,66
973,29	1,63
973,46	4,43
973,63	-0,69
973,80	4,22
973,97	3,41
974,14	11,32
974,31	5,56
974,48	-5,30
974,65	-0,04
974,82	2,62
974,99	12,66
975,16	-0,14
975,33	10,51
975,50	2,04
975,67	10,44
975,84	11,22
976,01	7,64
976,18	-5,57
976,35	6,14
976,51	6,10
976,68	6,85
976,85	1,19
977,02	15,04
977,19	2,72
977,36	-1,61
977,53	2,96
977,70	8,80
977,87	-0,86
978,04	6,55
978,21	-11,07
978,38	7,84
978,55	-1,48
978,72	1,46
978,88	1,49
979,05	6,31
979,22	-2,98
979,39	7,77
979,56	-3,93
979,73	6,14
979,90	2,69
980,07	0,88
980,24	7,36
980,41	1,84
980,58	1,97
980,75	4,22
980,91	0,13
981,08	-0,55
981,25	3,10
981,42	9,96
981,59	-0,72
981,76	8,32
981,93	-3,42
982,10	7,09
982,27	0,95
982,44	13,13
982,60	-3,46
982,77	6,72
982,94	3,61
983,11	12,45
983,28	4,19
983,45	9,28
983,62	-0,49
983,79	4,57
983,95	5,66
984,12	3,27
984,29	-1,51
984,46	13,37
984,63	2,07
984,80	9,69
984,97	-5,54
985,14	3,27
985,30	-4,27
985,47	7,30
985,64	5,49
985,81	4,19
985,98	-0,35
986,15	9,00
986,32	-0,93
986,49	5,25
986,65	5,69
986,82	2,21
986,99	6,10
987,16	11,49
987,33	1,19
987,50	15,28
987,67	0,67
987,83	7,67
988,00	-1,44
988,17	4,67
988,34	1,80
988,51	5,90
988,68	5,11
988,84	7,50
989,01	4,74
989,18	-2,47
989,35	-1,75
989,52	-5,09
989,69	-1,51
989,86	11,32
990,02	-4,04
990,19	4,36
990,36	-6,19
990,53	4,94
990,70	-2,26
990,87	1,97
991,03	8,49
991,20	0,88
991,37	0,64
991,54	11,70
991,71	2,48
991,87	8,22
992,04	2,35
992,21	3,30
992,38	0,71
992,55	-3,15
992,72	3,20
992,88	8,22
993,05	-5,03
993,22	6,07
993,39	8,15
993,56	6,34
993,72	2,45
993,89	9,89
994,06	6,51
994,23	7,64
994,40	3,92
994,56	2,35
994,73	4,98
994,90	8,08
995,07	6,78
995,24	-0,79
995,40	-3,28
995,57	-3,25
995,74	-1,89
995,91	9,89
996,08	1,22
996,24	13,03
996,41	-1,65
996,58	12,76
996,75	0,71
996,92	9,75
997,08	-1,89
997,25	10,68
997,42	-2,77
997,59	3,78
997,75	3,88
997,92	-5,84
998,09	-4,55
998,26	-1,41
998,43	-7,82
998,59	2,65
998,76	-0,90
998,93	6,65
999,10	1,63
999,26	0,98
999,43	0,44
999,60	4,91
999,77	-2,91
999,93	5,08
1000,10	-4,10
1000,27	1,32
1000,44	0,06
1000,60	8,05
1000,77	0,81
1000,94	7,91
1001,11	-6,19
1001,28	-3,15
1001,44	0,81
1001,61	1,29
1001,78	-1,37
1001,95	13,24
1002,11	5,79
1002,28	11,36
1002,45	0,09
1002,61	12,28
1002,78	-8,37
1002,95	11,36
1003,12	-4,55
1003,28	-4,00
1003,45	2,38
1003,62	1,84
1003,79	0,03
1003,95	0,78
1004,12	-4,65
1004,29	1,73
1004,46	11,15
1004,62	6,61
1004,79	5,69
1004,96	1,90
1005,12	1,97
1005,29	8,63
1005,46	1,02
1005,63	6,58
1005,79	-0,49
1005,96	12,18
1006,13	0,64
1006,29	1,29
1006,46	6,75
1006,63	5,66
1006,80	-3,22
1006,96	10,88
1007,13	0,44
1007,30	3,17
1007,46	-8,58
1007,63	12,11
1007,80	-2,53
1007,97	-0,38
1008,13	-7,04
1008,30	13,44
1008,47	1,73
1008,63	2,96
1008,80	-3,69
1008,97	11,77
1009,13	-3,63
1009,30	11,77
1009,47	1,43
1009,64	9,75
1009,80	4,46
1009,97	7,13
1010,14	4,16
1010,30	5,59
1010,47	-2,74
1010,64	3,41
1010,80	0,98
1010,97	1,87
1011,14	4,29
1011,30	8,46
1011,47	1,97
1011,64	4,94
1011,80	5,79
1011,97	7,95
1012,14	8,35
1012,30	-1,95
1012,47	-2,29
1012,64	7,98
1012,80	-1,85
1012,97	8,01
1013,14	-6,80
1013,30	10,71
1013,47	1,60
1013,64	5,01
1013,80	5,73
1013,97	6,72
1014,14	4,40
1014,30	8,63
1014,47	3,95
1014,64	5,76
1014,80	7,19
1014,97	7,09
1015,14	4,60
1015,30	1,63
1015,47	2,83
1015,64	3,58
1015,80	8,63
1015,97	7,23
1016,13	3,13
1016,30	9,72
1016,47	5,25
1016,63	2,72
1016,80	-4,38
1016,97	3,75
1017,13	-1,41
1017,30	5,93
1017,47	-3,59
1017,63	9,69
1017,80	-5,13
1017,96	9,65
1018,13	0,09
1018,30	9,04
1018,46	6,99
1018,63	3,99
1018,80	-2,29
1018,96	7,91
1019,13	-1,78
1019,29	-0,93
1019,46	-4,79
1019,63	0,03
1019,79	5,39
1019,96	7,81
1020,13	-2,67
1020,29	4,50
1020,46	5,66
1020,62	9,96
1020,79	2,62
1020,96	4,98
1021,12	1,77
1021,29	2,72
1021,45	5,08
1021,62	7,33
1021,79	11,02
1021,95	6,17
1022,12	8,59
1022,28	10,33
1022,45	-2,36
1022,62	13,07
1022,78	8,90
1022,95	5,04
1023,11	-2,98
1023,28	2,62
1023,45	3,75
1023,61	5,49
1023,78	3,47
1023,94	17,26
1024,11	-3,63
1024,27	1,73
1024,44	-2,67
1024,61	3,06
1024,77	-2,50
1024,94	6,41
1025,10	0,74
1025,27	8,73
1025,43	5,56
1025,60	5,28
1025,77	4,16
1025,93	6,27
1026,10	-7,48
1026,26	8,76
1026,43	5,08
1026,59	9,96
1026,76	-7,99
1026,93	10,68
1027,09	8,05
1027,26	1,94
1027,42	-5,71
1027,59	8,08
1027,75	1,94
1027,92	5,35
1028,08	-0,72
1028,25	13,51
1028,42	1,80
1028,58	11,15
1028,75	2,59
1028,91	4,02
1029,08	0,78
1029,24	0,78
1029,41	3,37
1029,57	6,00
1029,74	4,67
1029,91	5,04
1030,07	2,21
1030,24	2,21
1030,40	2,31
1030,57	12,01
1030,73	-0,69
1030,90	12,83
1031,06	-6,02
1031,23	6,44
1031,39	0,78
1031,56	7,54
1031,72	1,05
1031,89	9,89
1032,05	4,67
1032,22	2,65
1032,38	4,16
1032,55	3,54
1032,72	-0,49
1032,88	1,22
1033,05	4,84
1033,21	13,07
1033,38	2,14
1033,54	7,91
1033,71	-3,86
1033,87	-4,27
1034,04	9,28
1034,20	6,44
1034,37	7,33
1034,53	9,21
1034,70	-3,32
1034,86	4,12
1035,03	-0,49
1035,19	4,46
1035,36	-0,62
1035,52	4,70
1035,69	5,66
1035,85	8,49
1036,02	1,39
1036,18	-0,21
1036,35	7,09
1036,51	4,02
1036,68	1,46
1036,84	1,36
1037,01	0,95
1037,17	0,47
1037,34	-5,78
1037,50	0,37
1037,67	2,28
>>>>>Finisci Dati dello Spettro Elaborati<<<<<
